Data from Relative__40__14-48-03-128.txt Node

Date: Thu Jun 26 14:48:03 BST 2025
User: Jamie
Spectrometer: HDX00312
Trigger mode: 0
Integration Time (sec): 1.000000E-1
Scans to average: 1
Nonlinearity correction enabled: true
Boxcar width: 0
Storing dark spectrum: false
XAxis mode: Wavelengths
Number of Pixels in Spectrum: 2068
>>>>>Begin Spectral Data<<<<<
196.211	-81.24708
196.582	-799.98181
196.954	-1099.98336
197.325	-1599.9657
197.696	57.58078
198.067	45.74679
198.438	54.98779
198.809	43.63324
199.18	44.09902
199.551	42.7311
199.922	43.06431
200.293	37.9395
200.663	37.62169
201.034	36.07429
201.404	39.87837
201.774	40.26891
202.144	42.10108
202.515	35.68005
202.885	30.68739
203.255	41.16688
203.625	43.84055
203.994	29.7706
204.364	36.37278
204.734	36.34706
205.103	39.82444
205.473	44.01066
205.842	43.5014
206.212	36.17962
206.581	36.80161
206.95	39.89644
207.319	33.44124
207.688	36.73772
208.057	29.61579
208.426	37.47184
208.795	34.57211
209.163	33.55895
209.532	31.91826
209.9	40.07087
210.269	38.86517
210.637	45.67535
211.005	33.63518
211.374	38.51593
211.742	42.46074
212.11	30.75629
212.478	30.18633
212.846	29.42049
213.213	32.95397
213.581	30.82172
213.949	31.47666
214.316	40.24342
214.684	36.3737
215.051	28.97848
215.418	29.60966
215.786	35.57799
216.153	37.68362
216.52	32.73772
216.887	33.34379
217.254	29.7749
217.62	23.2933
217.987	29.4082
218.354	31.9939
218.72	25.42169
219.087	23.78135
219.453	30.43776
219.819	21.40921
220.186	22.47191
220.552	25.39386
220.918	24.1439
221.284	18.07574
221.65	19.48598
222.016	21.42301
222.381	16.44239
222.747	14.6644
223.113	16.75387
223.478	14.8626
223.844	12.23609
224.209	13.51304
224.574	12.49756
224.939	12.88792
225.304	13.18062
225.669	11.5469
226.034	8.71064
226.399	8.08827
226.764	9.22565
227.129	6.84579
227.493	8.12653
227.858	7.30837
228.222	5.81841
228.587	6.13102
228.951	5.98266
229.315	5.75318
229.679	5.6429
230.043	6.09759
230.407	5.03405
230.771	4.55964
231.135	4.91353
231.499	4.55458
231.862	3.91655
232.226	4.78832
232.589	4.90687
232.953	4.43612
233.316	3.4591
233.679	4.71663
234.042	3.73468
234.405	4.56821
234.768	4.16626
235.131	3.50127
235.494	3.62119
235.857	3.07634
236.22	3.38404
236.582	3.44462
236.945	3.29955
237.307	3.60968
237.669	3.52078
238.032	3.22075
238.394	3.20403
238.756	2.99281
239.118	3.34586
239.48	2.80124
239.842	2.89736
240.204	3.0149
240.565	3.05158
240.927	2.76002
241.288	2.98794
241.65	2.88319
242.011	3.08145
242.373	2.72452
242.734	2.35054
243.095	2.96267
243.456	2.81885
243.817	2.87913
244.178	2.6763
244.539	2.40628
244.899	2.58912
245.26	2.72381
245.621	2.44259
245.981	2.73828
246.341	2.28893
246.702	2.119
247.062	1.69004
247.422	2.03712
247.782	1.88098
248.142	1.9312
248.502	2.27968
248.862	2.01696
249.222	2.20145
249.582	2.23648
249.941	1.95062
250.301	2.06944
250.66	2.05831
251.02	1.84979
251.379	1.94228
251.738	2.15342
252.097	1.84555
252.456	2.02085
252.815	1.68145
253.174	1.60706
253.533	1.40342
253.892	1.61261
254.25	1.83641
254.609	1.76821
254.967	1.34556
255.326	1.59998
255.684	1.59851
256.042	1.76237
256.4	1.47957
256.759	1.31563
257.117	1.35033
257.474	1.13832
257.832	1.73818
258.19	1.36967
258.548	1.25209
258.905	1.06628
259.263	1.34533
259.62	1.3943
259.978	0.592
260.335	1.17281
260.692	1.27933
261.049	0.94697
261.406	0.86882
261.763	0.45351
262.12	0.87513
262.477	0.99468
262.834	1.14529
263.19	0.83336
263.547	1.11897
263.904	0.80645
264.26	1.23289
264.616	1.50712
264.973	1.13832
265.329	1.11848
265.685	1.12868
266.041	1.01399
266.397	1.32789
266.753	1.45557
267.108	1.27781
267.464	1.31395
267.82	1.17629
268.175	1.44004
268.531	1.49258
268.886	1.07209
269.241	0.91973
269.597	1.20456
269.952	1.55315
270.307	1.46064
270.662	1.34005
271.017	1.44489
271.371	1.6113
271.726	1.51213
272.081	1.7431
272.435	1.59369
272.79	1.63111
273.144	1.03835
273.499	1.15469
273.853	1.24913
274.207	1.44998
274.561	1.0763
274.915	1.18588
275.269	0.94645
275.623	1.15974
275.977	1.05073
276.331	0.92954
276.684	0.4485
277.038	1.35616
277.391	1.24901
277.745	1.25279
278.098	1.44534
278.451	1.24927
278.804	1.27847
279.157	1.50045
279.51	1.34669
279.863	0.72995
280.216	0.85686
280.569	1.13983
280.922	1.34806
281.274	1.05909
281.627	1.28845
281.979	1.2336
282.332	1.11115
282.684	1.25273
283.036	0.88261
283.388	1.24081
283.74	1.11547
284.092	1.00414
284.444	1.17516
284.796	1.44144
285.148	1.16572
285.499	1.06146
285.851	0.9388
286.202	1.1075
286.554	1.33238
286.905	0.90806
287.257	1.19758
287.608	1.20208
287.959	0.67306
288.31	1.12384
288.661	0.78567
289.012	0.81615
289.362	0.99636
289.713	0.91439
290.064	0.79873
290.414	0.82901
290.765	1.04014
291.115	0.76413
291.466	0.42521
291.816	0.71606
292.166	1.06433
292.516	0.80482
292.866	0.84894
293.216	0.53172
293.566	0.71454
293.916	0.9823
294.265	0.63256
294.615	0.92092
294.964	1.12003
295.314	0.84969
295.663	0.95476
296.013	0.87062
296.362	1.03261
296.711	1.1447
297.06	0.83473
297.409	1.01197
297.758	1.01323
298.107	0.94905
298.455	1.08927
298.804	0.67501
299.153	0.92789
299.501	1.02111
299.85	0.89777
300.198	0.69626
300.546	0.88088
300.894	0.82347
301.243	0.88118
301.591	0.71253
301.939	0.90134
302.287	0.87801
302.634	0.62169
302.982	1.04593
303.33	0.77872
303.677	0.76075
304.025	0.69862
304.372	1.03582
304.72	1.19752
305.067	0.82056
305.414	0.92123
305.761	0.87969
306.108	0.92647
306.455	0.69067
306.802	0.53355
307.149	0.86869
307.495	0.54257
307.842	0.6705
308.189	0.8953
308.535	0.86953
308.882	0.82909
309.228	0.66849
309.574	0.6828
309.92	0.5297
310.266	0.97017
310.612	0.83028
310.958	0.71219
311.304	0.73256
311.65	0.65281
311.996	0.57465
312.341	0.43958
312.687	0.66535
313.032	0.61578
313.378	0.89675
313.723	0.54848
314.068	0.71856
314.413	0.53426
314.759	0.80306
315.104	0.70306
315.449	0.65965
315.793	0.57687
316.138	0.74069
316.483	0.40334
316.827	0.69759
317.172	0.80926
317.516	0.77772
317.861	0.6628
318.205	0.69349
318.549	0.80292
318.894	0.69744
319.238	0.52851
319.582	0.83835
319.926	0.90796
320.269	0.51944
320.613	0.68445
320.957	0.66159
321.3	0.65228
321.644	0.54592
321.987	0.67112
322.331	0.52028
322.674	0.88056
323.017	0.70842
323.36	0.54122
323.704	0.75606
324.047	0.48013
324.389	0.59453
324.732	0.86177
325.075	1.08653
325.418	0.89626
325.76	0.52687
326.103	0.58543
326.445	0.85521
326.788	0.88345
327.13	1.01043
327.472	0.65539
327.814	0.79812
328.156	0.83579
328.498	0.7719
328.84	0.83413
329.182	1.23045
329.524	0.58258
329.866	0.96582
330.207	0.72751
330.549	0.97835
330.89	0.89512
331.231	0.60672
331.573	0.7179
331.914	0.71778
332.255	0.68522
332.596	0.95589
332.937	0.83933
333.278	0.75428
333.619	0.7017
333.96	0.49316
334.3	0.57096
334.641	0.44098
334.981	0.56739
335.322	0.84523
335.662	0.60435
336.003	0.49851
336.343	0.44093
336.683	0.7693
337.023	0.5286
337.363	0.43662
337.703	0.74043
338.043	0.52055
338.382	0.53628
338.722	0.47176
339.062	1.12136
339.401	0.64867
339.741	0.68342
340.08	0.7007
340.419	0.80687
340.759	0.45024
341.098	0.30738
341.437	0.74862
341.776	0.63949
342.115	0.51669
342.454	0.55001
342.792	0.67676
343.131	0.27207
343.47	0.50182
343.808	0.6215
344.147	0.75386
344.485	0.17741
344.823	0.55217
345.162	0.62736
345.5	0.6112
345.838	0.75127
346.176	0.53608
346.514	0.78361
346.851	0.68974
347.189	0.82407
347.527	0.77305
347.865	0.87172
348.202	0.59725
348.54	0.73426
348.877	0.81025
349.214	0.79718
349.551	1.18706
349.889	0.74333
350.226	1.13533
350.563	0.69897
350.9	0.73564
351.236	0.8307
351.573	0.78213
351.91	0.6063
352.247	0.86302
352.583	0.31487
352.92	0.87504
353.256	0.84293
353.592	0.59513
353.929	0.59021
354.265	0.94978
354.601	0.93493
354.937	1.00586
355.273	0.9437
355.609	0.80071
355.944	0.80066
356.28	0.95134
356.616	0.72302
356.951	0.61146
357.287	0.48538
357.622	0.60032
357.957	0.935
358.293	0.77498
358.628	0.56548
358.963	0.72636
359.298	0.8426
359.633	0.87479
359.968	0.42911
360.303	0.94033
360.637	1.067
360.972	0.96795
361.307	1.04056
361.641	0.57101
361.975	0.92206
362.31	0.54209
362.644	0.89379
362.978	0.5895
363.312	0.81152
363.646	1.0861
363.98	1.22715
364.314	0.67949
364.648	1.08495
364.982	0.9573
365.315	1.17955
365.649	0.96318
365.983	0.96399
366.316	0.74675
366.649	0.58777
366.983	0.9228
367.316	0.81663
367.649	0.73646
367.982	0.92569
368.315	0.80432
368.648	0.67018
368.981	1.41125
369.313	0.89974
369.646	1.07682
369.979	0.72778
370.311	1.25283
370.644	1.34118
370.976	1.0485
371.308	0.68709
371.641	1.01032
371.973	1.12177
372.305	1.4424
372.637	0.7573
372.969	1.37442
373.301	1.06481
373.632	0.84922
373.964	0.93911
374.296	0.86608
374.627	1.35627
374.959	0.96741
375.29	0.93872
375.621	1.00314
375.953	1.00951
376.284	0.88317
376.615	0.94503
376.946	0.795
377.277	1.21655
377.608	0.70661
377.939	0.89272
378.269	1.31121
378.6	0.9388
378.931	0.5784
379.261	1.04067
379.591	0.86111
379.922	0.96254
380.252	0.55417
380.582	1.06698
380.912	0.72726
381.242	1.16669
381.572	1.27938
381.902	1.0436
382.232	1.03157
382.562	0.97367
382.891	0.97078
383.221	0.66175
383.551	1.24842
383.88	1.1806
384.209	0.98753
384.539	0.90336
384.868	0.73169
385.197	0.98692
385.526	0.90866
385.855	1.15345
386.184	1.22554
386.513	0.97446
386.842	1.13467
387.17	1.07437
387.499	0.8772
387.828	1.16532
388.156	0.97396
388.484	0.94732
388.813	1.20061
389.141	1.14865
389.469	0.75744
389.797	1.09477
390.125	1.18501
390.453	0.91197
390.781	0.97045
391.109	1.07528
391.437	1.35605
391.764	1.19374
392.092	0.88916
392.419	1.30355
392.747	1.0775
393.074	0.81502
393.401	0.86117
393.729	0.82359
394.056	1.07568
394.383	0.84211
394.71	1.14783
395.037	0.97501
395.363	0.94902
395.69	0.95956
396.017	1.38878
396.344	0.84619
396.67	1.10459
396.997	1.27721
397.323	1.13391
397.649	1.41232
397.975	0.84887
398.302	0.79027
398.628	0.85722
398.954	0.99713
399.28	1.0773
399.606	0.95494
399.931	1.09838
400.257	1.32528
400.583	0.76675
400.908	1.19954
401.234	0.67347
401.559	1.34964
401.884	0.87749
402.21	1.2122
402.535	0.84411
402.86	1.45802
403.185	1.53273
403.51	1.18948
403.835	1.26837
404.16	0.87026
404.485	1.14616
404.809	1.53806
405.134	1.30167
405.458	1.1405
405.783	1.3754
406.107	1.13876
406.432	1.32745
406.756	1.28505
407.08	1.32356
407.404	1.52967
407.728	1.43839
408.052	1.66922
408.376	1.86174
408.7	1.51544
409.023	1.50726
409.347	1.52713
409.671	1.62374
409.994	1.23186
410.317	0.99458
410.641	1.96978
410.964	1.68739
411.287	1.29726
411.61	1.37171
411.933	1.39591
412.256	1.84968
412.579	1.54274
412.902	1.81998
413.225	1.68206
413.548	1.76989
413.87	1.55419
414.193	1.69024
414.515	1.43395
414.838	1.84563
415.16	1.91501
415.482	1.31006
415.804	1.16679
416.126	1.38353
416.448	1.4472
416.77	1.57887
417.092	1.24344
417.414	1.77688
417.736	1.29646
418.057	1.25692
418.379	1.528
418.701	1.10393
419.022	1.63766
419.343	1.37167
419.665	1.66073
419.986	1.65157
420.307	1.76423
420.628	1.23148
420.949	1.92297
421.27	1.77865
421.591	1.92843
421.912	1.39735
422.232	1.9925
422.553	2.07982
422.873	1.62888
423.194	1.49601
423.514	1.41708
423.835	1.56121
424.155	1.51828
424.475	1.96693
424.795	1.79859
425.115	1.88126
425.435	2.13958
425.755	1.6314
426.075	2.19796
426.395	1.43062
426.714	1.99279
427.034	2.35442
427.354	1.69442
427.673	3.04416
427.992	2.50127
428.312	2.14403
428.631	2.37375
428.95	2.16002
429.269	2.00658
429.588	2.00053
429.907	2.23426
430.226	2.23872
430.545	2.1012
430.864	2.01741
431.182	2.12694
431.501	2.37283
431.819	2.42023
432.138	1.76743
432.456	2.35838
432.774	2.04557
433.093	2.26278
433.411	2.73666
433.729	2.17182
434.047	2.15796
434.365	2.15264
434.683	2.13838
435	2.37157
435.318	2.26772
435.636	2.24009
435.953	2.20593
436.271	2.49133
436.588	2.24314
436.906	2.28755
437.223	1.86036
437.54	2.47404
437.857	1.65355
438.174	2.08979
438.491	2.47478
438.808	2.3576
439.125	2.43929
439.442	1.99155
439.758	2.33851
440.075	2.27468
440.392	2.62422
440.708	2.15179
441.024	1.94952
441.341	2.13803
441.657	3.07137
441.973	2.45716
442.289	2.50428
442.605	1.90996
442.921	2.61734
443.237	1.77961
443.553	2.29357
443.869	2.54654
444.184	2.15383
444.5	2.67603
444.816	2.53874
445.131	2.41616
445.446	3.01663
445.762	2.80573
446.077	3.14943
446.392	2.24179
446.707	2.73582
447.022	2.75165
447.337	2.37059
447.652	2.70528
447.967	2.23122
448.282	2.62436
448.596	2.36296
448.911	3.12097
449.225	2.5293
449.54	2.50574
449.854	2.74318
450.169	1.83253
450.483	2.80718
450.797	2.84599
451.111	2.54996
451.425	3.08364
451.739	3.00361
452.053	3.29173
452.367	2.86267
452.68	2.64328
452.994	3.06677
453.308	2.87828
453.621	2.63632
453.935	2.65057
454.248	2.74095
454.561	2.71398
454.874	2.90338
455.188	3.33163
455.501	2.77835
455.814	3.18432
456.127	3.35016
456.44	3.35394
456.752	2.7464
457.065	3.00192
457.378	2.87991
457.69	2.60389
458.003	2.69711
458.315	3.20954
458.628	2.76141
458.94	3.14922
459.252	3.25165
459.564	2.89988
459.876	2.7465
460.188	2.90788
460.5	3.42361
460.812	3.07305
461.124	2.56517
461.436	3.77335
461.747	2.93865
462.059	2.08516
462.37	3.02258
462.682	2.78384
462.993	3.22812
463.304	3.07423
463.616	3.13206
463.927	3.08581
464.238	2.7073
464.549	3.08102
464.86	2.73783
465.171	2.92661
465.481	3.25917
465.792	3.20577
466.103	2.78339
466.413	2.94522
466.724	3.16471
467.034	2.66548
467.345	3.21213
467.655	3.16249
467.965	3.21873
468.275	3.05307
468.585	2.81725
468.895	3.34114
469.205	3.78165
469.515	3.73187
469.825	3.30144
470.135	3.46228
470.444	3.13995
470.754	3.13489
471.063	3.0154
471.373	3.34071
471.682	3.35685
471.991	3.39776
472.301	2.72187
472.61	3.11043
472.919	3.0629
473.228	3.25606
473.537	3.35823
473.846	3.03529
474.155	3.20712
474.463	2.99535
474.772	3.19386
475.08	3.52672
475.389	3.43754
475.697	3.11222
476.006	3.48227
476.314	3.42176
476.622	3.5162
476.93	3.50191
477.239	3.25366
477.547	3.51226
477.855	3.38756
478.162	3.4196
478.47	3.08198
478.778	3.36713
479.086	3.67736
479.393	3.32494
479.701	3.3098
480.008	3.22301
480.315	3.41609
480.623	3.4114
480.93	3.4908
481.237	3.32746
481.544	3.36317
481.851	3.57472
482.158	3.66709
482.465	3.16299
482.772	3.81415
483.079	3.47622
483.385	3.28392
483.692	3.62855
483.998	3.77057
484.305	3.18077
484.611	3.61542
484.918	3.38979
485.224	3.01158
485.53	3.45165
485.836	3.51206
486.142	3.77759
486.448	3.29624
486.754	3.50365
487.06	3.41294
487.366	3.8534
487.671	3.25504
487.977	3.88253
488.282	3.65465
488.588	3.61107
488.893	3.77095
489.199	3.54036
489.504	3.81154
489.809	3.71502
490.114	3.40567
490.419	4.05454
490.724	3.49404
491.029	3.35279
491.334	3.73358
491.639	4.24065
491.943	3.68558
492.248	3.96175
492.553	4.08702
492.857	3.37132
493.162	3.98704
493.466	4.25839
493.77	4.04746
494.074	4.0626
494.378	3.7215
494.683	3.83714
494.987	3.79414
495.29	4.29158
495.594	4.34441
495.898	3.71798
496.202	3.90918
496.505	4.49435
496.809	3.65264
497.113	4.15131
497.416	4.69582
497.719	4.50302
498.023	4.05105
498.326	4.43916
498.629	4.27172
498.932	4.34484
499.235	4.32338
499.538	4.73945
499.841	4.44015
500.144	4.68996
500.446	5.1692
500.749	5.13926
501.052	4.50833
501.354	4.79368
501.657	5.42001
501.959	4.85876
502.261	4.73991
502.564	5.22106
502.866	5.06016
503.168	4.90964
503.47	5.26009
503.772	5.3295
504.074	5.5761
504.376	5.33733
504.677	5.5287
504.979	5.42587
505.281	5.52027
505.582	5.67883
505.884	6.06277
506.185	6.20231
506.486	5.59132
506.788	6.00379
507.089	6.27695
507.39	6.08419
507.691	5.97642
507.992	5.99357
508.293	6.24114
508.594	6.44918
508.895	6.80969
509.195	6.91759
509.496	6.88436
509.797	6.95741
510.097	6.80408
510.398	7.3063
510.698	7.00473
510.998	7.4089
511.298	7.33471
511.599	7.52422
511.899	7.50871
512.199	7.83735
512.499	7.91509
512.799	8.51924
513.098	8.1676
513.398	8.16069
513.698	8.43916
513.997	9.04549
514.297	8.52927
514.596	8.63739
514.896	8.96368
515.195	9.41525
515.494	9.08308
515.794	9.33348
516.093	9.26365
516.392	9.20239
516.691	9.95469
516.99	9.78522
517.288	10.35523
517.587	10.29744
517.886	10.32929
518.185	10.61089
518.483	10.87187
518.782	10.65802
519.08	10.81225
519.378	11.11683
519.677	11.75444
519.975	11.32342
520.273	11.88545
520.571	12.13186
520.869	12.17002
521.167	11.9698
521.465	12.1551
521.763	12.63832
522.061	12.98802
522.358	12.88838
522.656	12.94889
522.953	12.85798
523.251	12.96974
523.548	13.41356
523.846	13.44432
524.143	13.57085
524.44	13.64028
524.737	13.65697
525.034	13.85741
525.331	14.06146
525.628	14.22433
525.925	14.68944
526.222	14.7396
526.518	14.45769
526.815	14.75132
527.112	14.34695
527.408	14.91313
527.705	15.69015
528.001	15.26436
528.297	15.23224
528.593	14.902
528.89	15.40359
529.186	15.54904
529.482	15.20291
529.778	15.40988
530.074	15.41899
530.369	15.36197
530.665	15.40419
530.961	15.39584
531.256	15.34163
531.552	15.68927
531.847	15.48353
532.143	15.88142
532.438	15.49175
532.733	15.61298
533.029	15.54525
533.324	15.74132
533.619	15.5278
533.914	15.54912
534.209	15.43689
534.504	15.48253
534.798	15.73186
535.093	15.58049
535.388	15.74401
535.682	15.72235
535.977	15.36635
536.271	15.40227
536.566	15.28705
536.86	15.67641
537.154	15.37544
537.448	15.76476
537.742	15.55135
538.037	15.84598
538.33	14.93283
538.624	15.66793
538.918	15.38274
539.212	15.43774
539.506	15.21449
539.799	15.47521
540.093	15.36356
540.386	15.66622
540.68	15.76951
540.973	15.71836
541.266	15.53485
541.56	15.47861
541.853	15.39017
542.146	15.29851
542.439	15.30204
542.732	15.76862
543.025	15.51399
543.318	16.09812
543.61	15.71117
543.903	16.37228
544.196	16.19524
544.488	15.99911
544.781	16.21305
545.073	16.12199
545.365	16.43452
545.658	16.16479
545.95	16.50046
546.242	16.58574
546.534	16.45632
546.826	16.48324
547.118	16.54754
547.41	16.51043
547.702	16.47371
547.993	16.47859
548.285	16.97088
548.577	16.80233
548.868	17.02673
549.16	16.89565
549.451	16.88291
549.742	17.07466
550.034	17.29421
550.325	17.39889
550.616	17.08263
550.907	17.57782
551.198	17.39902
551.489	17.63731
551.78	18.1231
552.07	17.63287
552.361	17.82902
552.652	17.83805
552.942	17.35336
553.233	17.65196
553.523	18.04536
553.814	17.87297
554.104	17.95162
554.394	17.94636
554.684	18.23355
554.975	18.22623
555.265	18.0467
555.555	18.11612
555.845	18.35444
556.134	17.83579
556.424	18.07058
556.714	17.75552
557.003	17.98924
557.293	18.36906
557.583	18.4028
557.872	18.58859
558.161	18.03372
558.451	18.18091
558.74	18.04388
559.029	18.16455
559.318	18.35204
559.607	18.15302
559.896	18.03896
560.185	17.87954
560.474	17.76547
560.763	18.03146
561.051	17.65517
561.34	18.20619
561.629	17.82434
561.917	17.80953
562.205	17.89199
562.494	17.85239
562.782	17.45665
563.07	17.61036
563.359	18.11473
563.647	17.04259
563.935	17.33333
564.223	16.93329
564.51	17.52851
564.798	17.53461
565.086	17.93027
565.374	17.485
565.661	17.39848
565.949	17.34427
566.236	17.28099
566.524	17.55628
566.811	17.05111
567.099	16.97664
567.386	17.08132
567.673	16.89003
567.96	16.9629
568.247	17.18553
568.534	16.94382
568.821	16.5706
569.108	16.60474
569.394	16.16169
569.681	16.45462
569.968	16.67857
570.254	16.54087
570.541	16.51731
570.827	16.38525
571.114	15.99903
571.4	16.39459
571.686	16.32444
571.972	16.19954
572.258	15.85669
572.544	16.00126
572.83	15.93021
573.116	15.96584
573.402	15.7995
573.688	16.1269
573.973	15.75374
574.259	16.07923
574.545	16.051
574.83	15.60662
575.116	16.12627
575.401	15.87379
575.686	15.49527
575.971	16.0016
576.257	15.50951
576.542	15.47301
576.827	15.42728
577.112	15.32213
577.397	15.31603
577.681	15.54362
577.966	15.34651
578.251	15.10138
578.536	15.22809
578.82	15.33067
579.105	15.0683
579.389	15.54294
579.673	15.22299
579.958	15.32524
580.242	15.15824
580.526	15.03795
580.81	14.93322
581.094	14.74425
581.378	14.84317
581.662	14.97238
581.946	14.97235
582.23	14.9851
582.513	14.91652
582.797	14.68229
583.081	14.70213
583.364	14.72046
583.648	14.58633
583.931	14.67617
584.214	14.40411
584.498	14.36675
584.781	14.57613
585.064	14.42374
585.347	14.50028
585.63	14.447
585.913	14.20581
586.196	14.49705
586.478	14.18285
586.761	14.31218
587.044	14.57615
587.326	14.01517
587.609	14.44094
587.891	13.91221
588.174	14.18565
588.456	14.02286
588.738	13.97864
589.02	14.09525
589.303	13.85171
589.585	13.89836
589.867	14.24631
590.149	13.76588
590.43	14.00838
590.712	13.86388
590.994	13.98683
591.276	13.77345
591.557	13.99819
591.839	13.859
592.12	13.59442
592.402	13.46669
592.683	13.74742
592.964	13.41843
593.245	13.64687
593.527	13.8263
593.808	13.7459
594.089	13.57429
594.37	13.47553
594.65	13.57687
594.931	13.2389
595.212	13.35983
595.493	13.55216
595.773	13.00677
596.054	13.49043
596.334	13.50471
596.615	13.23906
596.895	13.09606
597.175	13.10384
597.456	13.15093
597.736	12.96774
598.016	12.86219
598.296	13.09595
598.576	13.24225
598.856	12.94392
599.136	13.15723
599.415	13.10506
599.695	12.83918
599.975	12.79069
600.254	12.41684
600.534	12.99399
600.813	12.8719
601.093	12.69237
601.372	12.5179
601.651	12.51896
601.93	12.31298
602.209	12.29107
602.488	12.21693
602.767	12.41725
603.046	12.38008
603.325	12.48002
603.604	12.09272
603.883	11.96096
604.161	12.10343
604.44	11.90557
604.718	12.21175
604.997	12.05136
605.275	12.03949
605.554	11.88164
605.832	11.94047
606.11	11.82869
606.388	11.77531
606.666	11.53993
606.944	11.46755
607.222	11.84592
607.5	11.74313
607.778	11.33547
608.056	11.2158
608.333	11.46687
608.611	11.31232
608.889	11.32734
609.166	11.45236
609.444	10.98419
609.721	10.66943
609.998	11.17539
610.275	10.89676
610.553	11.10616
610.83	10.8054
611.107	10.66633
611.384	10.82542
611.661	10.70468
611.937	10.76924
612.214	10.82149
612.491	10.7138
612.768	10.96464
613.044	10.29968
613.321	10.45732
613.597	10.56648
613.874	10.27085
614.15	10.30505
614.426	10.40498
614.702	10.17183
614.978	10.36298
615.255	10.32784
615.531	10.26561
615.806	10.31352
616.082	10.28748
616.358	10.14688
616.634	10.03155
616.91	10.02766
617.185	10.06557
617.461	10.30462
617.736	10.06209
618.012	9.95437
618.287	9.97006
618.562	10.10606
618.838	10.11034
619.113	10.11703
619.388	10.02484
619.663	10.08388
619.938	10.02546
620.213	9.90897
620.488	9.96713
620.762	9.97186
621.037	9.73286
621.312	9.92096
621.586	9.99223
621.861	10.18196
622.135	9.78564
622.41	10.03065
622.684	9.76372
622.958	9.88154
623.233	10.10814
623.507	9.93442
623.781	9.6944
624.055	10.1347
624.329	9.86534
624.603	9.86069
624.876	10.00938
625.15	10.09638
625.424	10.05334
625.698	9.88033
625.971	9.84361
626.245	9.97164
626.518	9.67617
626.791	9.62694
627.065	10.17759
627.338	10.27406
627.611	9.87833
627.884	10.02816
628.157	10.21933
628.43	9.89282
628.703	9.89723
628.976	9.96285
629.249	9.96801
629.522	10.01771
629.794	10.06263
630.067	9.77797
630.339	9.9929
630.612	10.28468
630.884	9.94333
631.157	9.98085
631.429	9.75341
631.701	9.89218
631.973	9.7196
632.245	10.20914
632.518	9.69604
632.789	9.99138
633.061	10.00778
633.333	9.96384
633.605	9.753
633.877	9.83083
634.148	9.87297
634.42	9.99943
634.691	9.81076
634.963	9.74445
635.234	9.44054
635.506	9.41716
635.777	9.38046
636.048	9.52643
636.319	9.35019
636.59	9.39383
636.861	9.36165
637.132	9.335
637.403	9.33029
637.674	9.17923
637.945	9.0765
638.216	9.15267
638.486	8.94803
638.757	9.05513
639.027	9.02464
639.298	8.87587
639.568	8.72357
639.838	8.72862
640.109	8.41739
640.379	8.76696
640.649	8.64398
640.919	8.3367
641.189	8.75177
641.459	8.12384
641.729	7.95692
641.999	8.10192
642.269	8.17297
642.538	8.0502
642.808	8.18542
643.077	8.09728
643.347	8.07138
643.616	7.54463
643.886	7.65455
644.155	7.72063
644.424	7.36731
644.693	7.46153
644.963	7.24801
645.232	7.56197
645.501	7.32177
645.77	7.48223
646.038	7.30686
646.307	7.12542
646.576	7.06037
646.845	7.04986
647.113	7.00666
647.382	7.08897
647.65	6.93572
647.919	6.86008
648.187	7.06876
648.455	6.82406
648.724	6.76652
648.992	6.66535
649.26	6.73068
649.528	6.40747
649.796	6.60966
650.064	6.80605
650.332	6.66025
650.6	6.41014
650.867	6.61006
651.135	6.44754
651.403	6.34977
651.67	6.45334
651.938	6.27569
652.205	6.37862
652.473	6.22842
652.74	6.32062
653.007	6.43575
653.274	6.09008
653.541	6.31897
653.808	6.12746
654.075	6.21509
654.342	6.00298
654.609	6.01761
654.876	6.16719
655.143	6.04529
655.409	6.02551
655.676	5.99144
655.943	5.97653
656.209	5.92164
656.475	5.74778
656.742	5.97026
657.008	5.8428
657.274	5.60461
657.541	5.71654
657.807	5.78465
658.073	5.7848
658.339	5.59302
658.605	5.55996
658.871	5.46189
659.136	5.48835
659.402	5.30493
659.668	5.10759
659.933	5.2829
660.199	5.25179
660.464	5.37415
660.73	5.04692
660.995	5.15224
661.261	4.93393
661.526	4.95482
661.791	4.73276
662.056	4.71017
662.321	4.61124
662.586	4.73652
662.851	4.65731
663.116	4.53982
663.381	4.33404
663.646	4.55358
663.91	4.27165
664.175	4.3449
664.439	4.31191
664.704	4.03004
664.968	4.0509
665.233	4.2589
665.497	4.1036
665.761	4.03305
666.025	4.15114
666.29	4.0654
666.554	3.99761
666.818	3.94086
667.082	3.81899
667.345	4.0105
667.609	4.07693
667.873	3.72457
668.137	3.6255
668.4	3.92189
668.664	3.69353
668.927	3.88694
669.191	3.7545
669.454	3.72968
669.718	3.52386
669.981	3.64491
670.244	3.73885
670.507	3.74949
670.77	3.61485
671.033	3.68735
671.296	3.46834
671.559	3.46116
671.822	3.60985
672.085	3.34402
672.348	3.73327
672.61	3.64352
672.873	3.74602
673.135	3.75748
673.398	3.6036
673.66	3.55522
673.922	3.47417
674.185	3.70625
674.447	3.37253
674.709	3.53526
674.971	3.67505
675.233	3.31994
675.495	3.76107
675.757	3.6463
676.019	3.6597
676.281	3.80571
676.542	3.75198
676.804	4.0034
677.066	3.83151
677.327	3.85518
677.589	3.82549
677.85	4.0735
678.112	3.89313
678.373	3.90369
678.634	3.95796
678.895	4.16844
679.156	4.05181
679.417	4.15672
679.678	4.4241
679.939	4.12649
680.2	4.3774
680.461	4.33949
680.722	4.31385
680.982	4.4521
681.243	4.38521
681.504	4.62968
681.764	4.61743
682.025	4.5149
682.285	4.71376
682.545	4.59848
682.806	4.99226
683.066	4.89332
683.326	5.15144
683.586	5.05692
683.846	5.37688
684.106	5.58957
684.366	5.58213
684.626	5.69655
684.885	5.96248
685.145	6.14982
685.405	6.36227
685.664	6.70636
685.924	6.2611
686.183	6.75087
686.443	7.08542
686.702	6.94203
686.961	7.41681
687.221	7.35624
687.48	7.80273
687.739	8.18102
687.998	8.28557
688.257	8.63933
688.516	8.69013
688.775	8.81952
689.033	9.0555
689.292	9.62778
689.551	10.03121
689.809	10.31701
690.068	10.77013
690.326	11.28013
690.585	11.29812
690.843	11.74681
691.102	11.96676
691.36	12.40658
691.618	12.68158
691.876	13.40151
692.134	13.76774
692.392	13.85513
692.65	14.50758
692.908	14.67439
693.166	15.36607
693.424	15.74955
693.681	16.17674
693.939	16.43028
694.197	16.95222
694.454	17.41007
694.712	17.90867
694.969	18.11319
695.226	18.5806
695.484	18.97435
695.741	19.48254
695.998	19.95065
696.255	20.35524
696.512	21.0153
696.769	21.15246
697.026	21.57813
697.283	22.01183
697.54	22.62401
697.796	22.81021
698.053	23.25336
698.31	23.65871
698.566	24.34089
698.823	24.89211
699.079	24.99449
699.336	25.67974
699.592	25.6808
699.848	26.36336
700.104	26.70712
700.361	26.95382
700.617	27.57777
700.873	27.78649
701.129	28.06773
701.384	28.37285
701.64	28.96532
701.896	29.27259
702.152	29.47589
702.407	29.74741
702.663	29.98651
702.919	30.62318
703.174	30.91393
703.43	31.082
703.685	31.41
703.94	31.79068
704.195	31.85849
704.451	32.12028
704.706	32.43296
704.961	32.93743
705.216	33.09801
705.471	33.16747
705.726	33.74102
705.98	33.72868
706.235	33.93199
706.49	34.13222
706.745	34.13227
706.999	34.50817
707.254	35.09843
707.508	35.03243
707.762	34.96284
708.017	35.23703
708.271	35.47187
708.525	35.54149
708.779	35.74283
709.034	35.92129
709.288	36.33534
709.542	36.30731
709.796	36.5418
710.049	36.41903
710.303	36.85385
710.557	36.97266
710.811	37.30302
711.064	37.21315
711.318	37.30713
711.571	37.57997
711.825	37.36877
712.078	37.87541
712.331	37.84151
712.585	37.98281
712.838	37.90501
713.091	38.40531
713.344	37.9449
713.597	38.34253
713.85	38.17005
714.103	38.19554
714.356	38.3184
714.609	38.28303
714.862	38.59754
715.114	38.18464
715.367	38.16171
715.619	38.74565
715.872	38.48278
716.124	38.62585
716.377	38.27276
716.629	38.36433
716.881	38.33313
717.133	38.66291
717.386	38.3225
717.638	38.72609
717.89	38.0856
718.142	38.57641
718.394	38.4995
718.645	38.37442
718.897	38.32075
719.149	38.67085
719.401	38.69884
719.652	38.37775
719.904	39.00941
720.155	38.60048
720.407	39.15802
720.658	38.92727
720.909	38.93269
721.161	38.84413
721.412	39.34577
721.663	39.12517
721.914	39.37105
722.165	39.0278
722.416	39.38396
722.667	39.43857
722.918	39.22938
723.169	39.5846
723.419	39.42697
723.67	39.81453
723.921	39.48478
724.171	39.12535
724.422	39.51656
724.672	40.0956
724.922	39.64734
725.173	39.53315
725.423	39.71427
725.673	39.77342
725.923	40.17744
726.173	40.01489
726.423	40.1088
726.673	40.34362
726.923	40.31638
727.173	40.30318
727.423	40.21681
727.673	40.19195
727.922	40.57092
728.172	40.3306
728.421	40.37618
728.671	41.07047
728.92	40.14468
729.17	40.23805
729.419	40.51782
729.668	40.54933
729.918	40.09325
730.167	40.589
730.416	39.82661
730.665	40.65898
730.914	40.60439
731.163	41.04436
731.411	40.5882
731.66	40.69304
731.909	41.09575
732.158	40.84621
732.406	41.00432
732.655	40.57891
732.903	40.87878
733.152	40.92983
733.4	40.59675
733.648	40.37925
733.897	40.55362
734.145	40.99485
734.393	41.25887
734.641	40.99152
734.889	41.26617
735.137	40.50332
735.385	41.21704
735.633	41.12077
735.881	41.25123
736.129	40.79346
736.376	41.13351
736.624	41.03573
736.871	41.06557
737.119	41.15226
737.366	40.90896
737.614	41.15584
737.861	41.14661
738.108	41.09887
738.356	40.87044
738.603	41.43762
738.85	41.20215
739.097	41.33388
739.344	41.1456
739.591	41.10088
739.838	41.00817
740.084	41.14965
740.331	41.28968
740.578	41.58958
740.825	41.2726
741.071	41.32999
741.318	41.09655
741.564	41.32261
741.811	41.53053
742.057	41.43621
742.303	41.30751
742.549	41.42985
742.796	40.91708
743.042	41.3228
743.288	41.55601
743.534	41.30559
743.78	41.4165
744.026	41.47535
744.271	41.59672
744.517	41.14576
744.763	41.47969
745.009	41.37306
745.254	41.36605
745.5	41.66224
745.745	41.08658
745.991	41.51682
746.236	41.20214
746.481	41.41667
746.727	41.67861
746.972	41.7794
747.217	41.24729
747.462	41.7281
747.707	41.97681
747.952	41.02465
748.197	41.3159
748.442	41.45263
748.686	41.55342
748.931	41.39175
749.176	41.81494
749.421	41.46452
749.665	41.21226
749.91	41.47522
750.154	41.76839
750.398	41.47388
750.643	41.65082
750.887	41.34686
751.131	41.94694
751.375	41.18947
751.62	41.48984
751.864	41.43867
752.108	41.72664
752.351	41.66307
752.595	41.32484
752.839	41.3709
753.083	41.28933
753.327	40.99549
753.57	41.65128
753.814	41.37547
754.057	41.57681
754.301	41.74531
754.544	42.00373
754.788	41.33779
755.031	41.34489
755.274	41.21805
755.517	41.85847
755.761	41.16317
756.004	41.52858
756.247	41.1133
756.49	41.45543
756.732	41.4206
756.975	41.20802
757.218	41.33204
757.461	41.20496
757.704	41.55267
757.946	41.77178
758.189	41.09839
758.431	41.2476
758.674	41.51476
758.916	41.39046
759.158	41.68279
759.401	41.55467
759.643	41.8098
759.885	41.63254
760.127	41.20564
760.369	41.52216
760.611	41.32686
760.853	41.81139
761.095	41.49158
761.337	41.42111
761.579	41.5049
761.82	41.39002
762.062	41.31855
762.304	41.35456
762.545	41.30287
762.787	41.21438
763.028	41.2927
763.269	41.4268
763.511	41.48703
763.752	41.1108
763.993	41.41388
764.234	41.40007
764.475	41.46932
764.716	41.32589
764.957	41.1172
765.198	41.32801
765.439	41.54868
765.68	41.18371
765.921	41.38469
766.161	41.67907
766.402	41.61455
766.643	41.65656
766.883	41.23907
767.124	41.72573
767.364	41.74361
767.604	41.6781
767.845	41.22293
768.085	41.34799
768.325	41.12778
768.565	41.50328
768.805	41.59762
769.045	41.44724
769.285	41.41024
769.525	41.69652
769.765	41.57779
770.005	41.29727
770.244	41.45282
770.484	41.33895
770.724	41.29943
770.963	41.50627
771.203	41.49041
771.442	41.30219
771.682	41.39422
771.921	41.36764
772.16	41.18852
772.399	41.49373
772.639	41.50014
772.878	41.42421
773.117	40.99233
773.356	41.19504
773.595	41.50583
773.834	40.98183
774.072	41.17982
774.311	41.29046
774.55	41.13199
774.789	41.36263
775.027	41.26781
775.266	41.41856
775.504	41.61006
775.743	41.5947
775.981	42.13935
776.219	41.63898
776.458	41.80469
776.696	41.88397
776.934	41.17194
777.172	41.10003
777.41	41.02971
777.648	41.37645
777.886	41.2848
778.124	41.11027
778.362	41.05505
778.6	41.76064
778.837	41.21231
779.075	41.31918
779.313	41.26733
779.55	41.65988
779.788	41.45092
780.025	41.14677
780.262	41.70903
780.5	41.68648
780.737	41.44485
780.974	40.65286
781.211	41.10916
781.449	41.43579
781.686	41.32166
781.923	41.64806
782.159	41.14077
782.396	41.08357
782.633	41.31735
782.87	40.74367
783.107	41.49554
783.343	41.38642
783.58	41.63815
783.816	41.4652
784.053	41.1554
784.289	41.38236
784.526	41.1121
784.762	41.20856
784.998	41.60853
785.235	41.40343
785.471	41.34865
785.707	41.58672
785.943	41.20305
786.179	40.79307
786.415	41.17124
786.651	41.15305
786.887	41.39884
787.122	41.41569
787.358	41.7423
787.594	41.15076
787.829	41.16042
788.065	41.07972
788.3	41.36057
788.536	41.17475
788.771	41.10995
789.006	41.91377
789.242	41.35575
789.477	41.08473
789.712	40.74553
789.947	41.25744
790.182	41.36748
790.417	41.45018
790.652	40.96968
790.887	41.38736
791.122	40.99194
791.357	40.84018
791.591	41.21374
791.826	41.08206
792.061	41.49808
792.295	41.44399
792.53	40.65903
792.764	41.24183
792.999	41.36425
793.233	41.29071
793.467	41.31148
793.701	41.03759
793.936	41.27576
794.17	41.12684
794.404	41.34081
794.638	40.7791
794.872	41.30456
795.106	41.09673
795.34	41.491
795.573	41.16888
795.807	41.00218
796.041	41.22705
796.274	41.03179
796.508	41.26297
796.741	41.04268
796.975	41.82059
797.208	41.32519
797.442	41.1855
797.675	41.07399
797.908	40.9784
798.141	41.05223
798.375	41.65891
798.608	40.75989
798.841	41.01648
799.074	40.93872
799.306	41.27529
799.539	40.90921
799.772	41.02529
800.005	41.02004
800.238	41.24559
800.47	41.47888
800.703	41.39019
800.935	41.49538
801.168	41.13977
801.4	41.12497
801.633	41.04596
801.865	41.22874
802.097	40.68615
802.329	41.27452
802.562	40.93834
802.794	41.48269
803.026	41.24256
803.258	41.42231
803.49	41.16205
803.721	41.46676
803.953	40.86879
804.185	40.83116
804.417	40.83147
804.648	41.53139
804.88	41.53946
805.112	40.83048
805.343	41.08119
805.575	40.86411
805.806	41.14793
806.037	41.03525
806.269	40.9449
806.5	41.37708
806.731	40.82369
806.962	41.24933
807.193	41.36319
807.424	41.21959
807.655	41.79572
807.886	27.99809
808.117	88.00033
808.348	66.66734
808.578	199.99647
