Data from Relative__10__14-42-28-324.txt Node

Date: Thu Jun 26 14:42:28 BST 2025
User: Jamie
Spectrometer: HDX00312
Trigger mode: 0
Integration Time (sec): 1.000000E-1
Scans to average: 1
Nonlinearity correction enabled: true
Boxcar width: 0
Storing dark spectrum: false
XAxis mode: Wavelengths
Number of Pixels in Spectrum: 2068
>>>>>Begin Spectral Data<<<<<
196.211	-24.99938
196.582	-49.99981
196.954	-199.99924
197.325	-799.99092
197.696	48.48998
198.067	46.19523
198.438	45.02764
198.809	42.62648
199.18	41.86247
199.551	33.86953
199.922	37.50837
200.293	38.28436
200.663	41.20409
201.034	38.0417
201.404	32.36124
201.774	31.82646
202.144	37.86342
202.515	31.41119
202.885	32.16255
203.255	36.02173
203.625	36.04775
203.994	27.09155
204.364	38.25385
204.734	34.31192
205.103	38.58977
205.473	37.43871
205.842	32.55356
206.212	39.21943
206.581	35.22911
206.95	32.48815
207.319	33.73714
207.688	34.57698
208.057	36.86753
208.426	35.3568
208.795	41.61971
209.163	29.32382
209.532	27.0741
209.9	34.56572
210.269	34.64785
210.637	30.934
211.005	31.88054
211.374	28.45703
211.742	39.04166
212.11	32.7681
212.478	29.89042
212.846	40.01008
213.213	37.03611
213.581	35.86448
213.949	33.61034
214.316	37.32769
214.684	36.65782
215.051	29.53568
215.418	27.74262
215.786	40.47546
216.153	33.25091
216.52	28.06153
216.887	26.25583
217.254	28.99146
217.62	25.00943
217.987	31.09529
218.354	30.86754
218.72	24.71563
219.087	24.60127
219.453	27.45831
219.819	24.2908
220.186	30.48209
220.552	20.23939
220.918	22.13221
221.284	21.30303
221.65	17.8746
222.016	24.80485
222.381	16.44239
222.747	16.61933
223.113	17.61287
223.478	17.35512
223.844	16.86993
224.209	15.62904
224.574	15.04275
224.939	13.59201
225.304	14.26279
225.669	12.975
226.034	13.03827
226.399	11.96373
226.764	11.8671
227.129	11.97828
227.493	12.04313
227.858	11.73782
228.222	10.56308
228.587	9.64928
228.951	10.16336
229.315	11.14239
229.679	9.96969
230.043	9.40128
230.407	7.90659
230.771	9.2568
231.135	8.74183
231.499	7.7651
231.862	7.6503
232.226	7.8441
232.589	8.61772
232.953	8.96003
233.316	7.90465
233.679	7.61386
234.042	8.28476
234.405	8.1631
234.768	7.97417
235.131	7.67825
235.494	7.25467
235.857	7.11
236.22	6.74482
236.582	7.51977
236.945	7.209
237.307	6.96687
237.669	6.79694
238.032	6.91148
238.394	6.31501
238.756	6.84214
239.118	6.69355
239.48	6.33807
239.842	6.49608
240.204	6.46132
240.565	6.33304
240.927	6.66005
241.288	6.38802
241.65	6.16917
242.011	6.20416
242.373	5.95233
242.734	6.19176
243.095	6.4227
243.456	6.13199
243.817	5.61356
244.178	6.02562
244.539	6.33219
244.899	5.87737
245.26	5.95702
245.621	5.7234
245.981	5.89682
246.341	5.63018
246.702	5.58264
247.062	5.62136
247.422	5.68298
247.782	5.6151
248.142	5.4725
248.502	6.00296
248.862	5.51875
249.222	5.77321
249.582	5.63782
249.941	5.71555
250.301	5.23975
250.66	5.25676
251.02	5.45043
251.379	5.43027
251.738	5.46296
252.097	5.23109
252.456	5.42376
252.815	5.12104
253.174	5.10816
253.533	5.32903
253.892	4.9639
254.25	5.11242
254.609	5.30913
254.967	4.87431
255.326	5.2206
255.684	5.14464
256.042	4.92981
256.4	4.92052
256.759	5.21502
257.117	4.8432
257.474	4.66641
257.832	4.9829
258.19	5.07174
258.548	4.70935
258.905	4.75647
259.263	5.28896
259.62	5.08814
259.978	4.59867
260.335	4.62125
260.692	4.78693
261.049	4.72929
261.406	4.38433
261.763	4.7331
262.12	4.65215
262.477	4.77585
262.834	5.03468
263.19	4.76345
263.547	4.49633
263.904	4.32184
264.26	4.65301
264.616	5.06501
264.973	4.52017
265.329	5.04822
265.685	4.85687
266.041	4.9441
266.397	5.14403
266.753	4.8056
267.108	5.33006
267.464	5.15144
267.82	5.06884
268.175	5.2114
268.531	5.21331
268.886	4.92005
269.241	4.78505
269.597	5.1666
269.952	5.37437
270.307	4.90476
270.662	4.75184
271.017	5.25256
271.371	5.27857
271.726	4.73674
272.081	5.35466
272.435	4.78723
272.79	5.02308
273.144	4.84996
273.499	4.95842
273.853	5.00219
274.207	5.41988
274.561	4.85117
274.915	4.8649
275.269	4.78773
275.623	4.66988
275.977	4.52851
276.331	4.65354
276.684	4.37357
277.038	5.10989
277.391	5.00575
277.745	4.93844
278.098	5.18146
278.451	4.483
278.804	5.02129
279.157	4.88725
279.51	5.19378
279.863	4.88613
280.216	4.67051
280.569	4.71024
280.922	4.89104
281.274	4.11472
281.627	4.57645
281.979	4.93935
282.332	4.89617
282.684	4.90457
283.036	4.90145
283.388	4.82006
283.74	4.71136
284.092	4.75916
284.444	4.88868
284.796	4.64338
285.148	4.10407
285.499	4.71062
285.851	4.32721
286.202	4.78441
286.554	4.54864
286.905	4.46248
287.257	4.34468
287.608	4.8709
287.959	4.536
288.31	4.24841
288.661	4.36527
289.012	4.52084
289.362	4.87657
289.713	4.63721
290.064	4.44178
290.414	4.37544
290.765	4.45872
291.115	4.76648
291.466	4.08546
291.816	4.26141
292.166	4.42481
292.516	4.48818
292.866	4.37187
293.216	4.35491
293.566	4.25003
293.916	4.59943
294.265	4.29233
294.615	4.48448
294.964	4.83861
295.314	4.79164
295.663	4.90527
296.013	4.58915
296.362	5.10982
296.711	4.71099
297.06	4.78751
297.409	5.44065
297.758	5.60635
298.107	5.40847
298.455	5.39733
298.804	5.42932
299.153	5.63923
299.501	6.1149
299.85	5.71199
300.198	6.15834
300.546	6.18102
300.894	6.1841
301.243	6.3076
301.591	6.6183
301.939	6.80583
302.287	6.80014
302.634	6.48374
302.982	6.85459
303.33	6.89347
303.677	6.78752
304.025	6.87019
304.372	6.75028
304.72	6.8262
305.067	6.98274
305.414	7.08597
305.761	7.07822
306.108	6.95776
306.455	7.29706
306.802	7.3516
307.149	7.60511
307.495	7.20098
307.842	7.30072
308.189	7.44161
308.535	7.76557
308.882	7.43184
309.228	7.43985
309.574	7.54793
309.92	7.42766
310.266	7.59381
310.612	7.31995
310.958	7.45475
311.304	7.31508
311.65	7.47894
311.996	7.1284
312.341	7.34114
312.687	7.52341
313.032	7.4798
313.378	7.6185
313.723	7.43349
314.068	7.42396
314.413	7.19623
314.759	7.60168
315.104	7.36917
315.449	7.60855
315.793	7.83112
316.138	7.7355
316.483	8.03482
316.827	7.78502
317.172	7.9268
317.516	8.09484
317.861	8.13235
318.205	7.694
318.549	7.95535
318.894	7.62306
319.238	7.90793
319.582	8.16005
319.926	8.11836
320.269	7.62696
320.613	7.87625
320.957	7.67992
321.3	7.92062
321.644	7.7517
321.987	7.81975
322.331	7.80063
322.674	7.68528
323.017	7.83897
323.36	7.55324
323.704	7.70034
324.047	7.55875
324.389	7.45151
324.732	7.6138
325.075	7.6519
325.418	7.64018
325.76	7.7167
326.103	7.34888
326.445	7.63446
326.788	7.75671
327.13	7.44592
327.472	7.49659
327.814	7.46509
328.156	7.29675
328.498	7.08333
328.84	7.02415
329.182	7.16515
329.524	7.19611
329.866	7.00138
330.207	7.05332
330.549	7.08502
330.89	6.71989
331.231	7.16672
331.573	6.70128
331.914	6.88334
332.255	6.80729
332.596	6.63127
332.937	6.63299
333.278	6.38273
333.619	6.39924
333.96	6.23135
334.3	6.25787
334.641	6.03785
334.981	6.12307
335.322	6.17267
335.662	5.62962
336.003	6.3341
336.343	5.95094
336.683	5.67415
337.023	6.14145
337.363	5.78559
337.703	6.14479
338.043	5.99635
338.382	5.94658
338.722	5.8314
339.062	5.79564
339.401	5.81476
339.741	5.8541
340.08	5.69345
340.419	5.50367
340.759	5.47817
341.098	5.58333
341.437	5.49641
341.776	5.53553
342.115	5.19105
342.454	5.69443
342.792	5.77221
343.131	5.62902
343.47	5.35747
343.808	5.59907
344.147	5.67111
344.485	5.24765
344.823	5.37734
345.162	5.31199
345.5	5.00804
345.838	5.41031
346.176	5.21397
346.514	5.31734
346.851	5.12695
347.189	5.42898
347.527	5.45796
347.865	5.19365
348.202	4.96734
348.54	5.40806
348.877	4.90603
349.214	4.96598
349.551	5.19122
349.889	5.04775
350.226	5.27885
350.563	4.88451
350.9	4.94906
351.236	5.3884
351.573	4.88533
351.91	4.28593
352.247	4.87148
352.583	4.74731
352.92	4.62514
353.256	4.97115
353.592	4.24889
353.929	4.59079
354.265	4.86118
354.601	4.52588
354.937	4.61515
355.273	4.69812
355.609	4.26602
355.944	4.86773
356.28	4.60036
356.616	4.60997
356.951	4.42431
357.287	4.11618
357.622	4.30422
357.957	4.76398
358.293	4.12013
358.628	4.33803
358.963	4.02821
359.298	4.88046
359.633	3.99788
359.968	4.39718
360.303	4.59283
360.637	4.56248
360.972	4.49551
361.307	4.45194
361.641	4.20762
361.975	4.3001
362.31	4.17486
362.644	4.47988
362.978	4.18485
363.312	4.03609
363.646	4.36058
363.98	4.39975
364.314	3.98767
364.648	4.29858
364.982	3.78826
365.315	4.48811
365.649	4.33874
365.983	4.16012
366.316	4.13395
366.649	4.27936
366.983	4.10633
367.316	3.92832
367.649	4.02317
367.982	4.20777
368.315	4.28194
368.648	4.03836
368.981	4.64686
369.313	4.02629
369.646	4.23524
369.979	4.09622
370.311	4.39992
370.644	4.27426
370.976	3.92343
371.308	4.024
371.641	4.18096
371.973	4.28572
372.305	4.53136
372.637	3.66249
372.969	4.21737
373.301	4.41214
373.632	4.08601
373.964	4.16509
374.296	3.8376
374.627	3.95176
374.959	4.19288
375.29	4.07874
375.621	4.01526
375.953	3.8917
376.284	4.00704
376.615	3.62407
376.946	3.70631
377.277	3.99512
377.608	3.55092
377.939	4.00493
378.269	3.85725
378.6	3.88714
378.931	3.46849
379.261	3.7355
379.591	3.84777
379.922	3.55262
380.252	3.4038
380.582	4.08942
380.912	3.72065
381.242	3.72146
381.572	3.75485
381.902	3.68931
382.232	3.63207
382.562	3.87186
382.891	3.80286
383.221	3.73056
383.551	3.90597
383.88	3.76984
384.209	3.33083
384.539	3.65886
384.868	3.8405
385.197	3.66764
385.526	3.70626
385.855	4.0016
386.184	3.76793
386.513	3.90607
386.842	3.71828
387.17	4.06902
387.499	3.79573
387.828	3.62148
388.156	3.30488
388.484	3.63383
388.813	3.79331
389.141	4.14386
389.469	3.21252
389.797	3.73942
390.125	4.02691
390.453	3.85347
390.781	3.85968
391.109	3.74423
391.437	4.0214
391.764	3.94416
392.092	3.95443
392.419	3.44334
392.747	3.29013
393.074	3.69768
393.401	2.89912
393.729	3.68924
394.056	3.63173
394.383	3.44745
394.71	3.87755
395.037	3.56314
395.363	3.50816
395.69	3.75543
396.017	3.69337
396.344	3.82083
396.67	3.51708
396.997	3.83481
397.323	3.89206
397.649	4.01768
397.975	3.66655
398.302	3.98374
398.628	3.65982
398.954	3.14044
399.28	3.92124
399.606	4.30469
399.931	3.68194
400.257	3.78628
400.583	3.4139
400.908	3.79405
401.234	3.55872
401.559	4.00245
401.884	3.67801
402.21	3.80965
402.535	3.66553
402.86	4.11018
403.185	3.83892
403.51	3.83416
403.835	3.87223
404.16	3.57734
404.485	4.28284
404.809	4.38571
405.134	4.00774
405.458	4.00744
405.783	4.00098
406.107	3.97201
406.432	4.01016
406.756	3.97768
407.08	4.25608
407.404	4.15698
407.728	4.40969
408.052	4.2559
408.376	4.01218
408.7	4.34344
409.023	4.33061
409.347	3.88073
409.671	4.22235
409.994	3.52266
410.317	3.78627
410.641	4.34646
410.964	4.11632
411.287	4.33443
411.61	4.04568
411.933	4.25918
412.256	4.38962
412.579	4.10606
412.902	4.676
413.225	4.41189
413.548	4.58101
413.87	4.46307
414.193	4.65986
414.515	4.18823
414.838	4.38544
415.16	4.4189
415.482	4.16132
415.804	4.05653
416.126	4.25065
416.448	4.08905
416.77	4.56047
417.092	4.61139
417.414	4.72745
417.736	4.26253
418.057	4.40369
418.379	4.34296
418.701	4.14435
419.022	4.56752
419.343	4.42437
419.665	4.44646
419.986	4.46584
420.307	4.15652
420.628	4.37061
420.949	4.90908
421.27	4.69482
421.591	5.03253
421.912	4.75791
422.232	4.9521
422.553	5.00024
422.873	4.90447
423.194	4.73624
423.514	4.68608
423.835	4.85872
424.155	4.95918
424.475	5.18855
424.795	4.85716
425.115	5.41357
425.435	5.18956
425.755	5.41967
426.075	5.34792
426.395	4.76399
426.714	5.00347
427.034	4.99938
427.354	5.08097
427.673	5.98422
427.992	5.36002
428.312	4.93872
428.631	5.49833
428.95	5.32927
429.269	4.68284
429.588	5.67645
429.907	5.32207
430.226	5.67729
430.545	5.66893
430.864	5.37215
431.182	5.71528
431.501	5.67992
431.819	6.03587
432.138	5.53145
432.456	5.65771
432.774	5.22455
433.093	5.3129
433.411	6.02723
433.729	6.31159
434.047	5.78311
434.365	5.34276
434.683	5.6754
435	5.68587
435.318	5.69442
435.636	5.53479
435.953	5.92868
436.271	5.40056
436.588	5.78008
436.906	5.64228
437.223	5.68086
437.54	5.7549
437.857	5.34295
438.174	5.31488
438.491	5.93717
438.808	5.73201
439.125	5.38879
439.442	6.12274
439.758	5.20411
440.075	6.31575
440.392	5.42917
440.708	5.41291
441.024	4.7174
441.341	5.5989
441.657	5.8289
441.973	6.13541
442.289	6.28238
442.605	6.43796
442.921	6.32338
443.237	5.57245
443.553	6.04147
443.869	6.14839
444.184	6.04392
444.5	5.95986
444.816	5.96775
445.131	5.95422
445.446	5.99158
445.762	6.10493
446.077	6.13636
446.392	6.02229
446.707	5.95234
447.022	6.51225
447.337	6.44478
447.652	6.15917
447.967	5.85971
448.282	6.13827
448.596	5.72352
448.911	6.33091
449.225	6.82698
449.54	5.27472
449.854	6.47938
450.169	5.62687
450.483	6.13533
450.797	6.53
451.111	6.18598
451.425	6.35774
451.739	6.84946
452.053	6.66204
452.367	6.7169
452.68	7.1495
452.994	6.70213
453.308	6.53619
453.621	6.50285
453.935	6.41136
454.248	6.26535
454.561	6.4752
454.874	6.46585
455.188	6.6412
455.501	5.82169
455.814	6.43532
456.127	6.58072
456.44	6.2805
456.752	5.94356
457.065	6.74429
457.378	6.01428
457.69	6.4009
458.003	6.43822
458.315	6.6153
458.628	5.9512
458.94	6.29615
459.252	6.5475
459.564	6.18525
459.876	6.59048
460.188	6.5699
460.5	7.14534
460.812	6.84104
461.124	5.68509
461.436	7.76867
461.747	6.66032
462.059	6.04589
462.37	6.629
462.682	6.20273
462.993	6.49814
463.304	6.59358
463.616	6.22675
463.927	6.71843
464.238	6.69509
464.549	6.2117
464.86	6.72392
465.171	6.27615
465.481	6.58496
465.792	6.46923
466.103	6.55469
466.413	6.4904
466.724	6.45401
467.034	5.94166
467.345	6.81101
467.655	6.42464
467.965	6.30051
468.275	6.54899
468.585	6.40527
468.895	6.98732
469.205	6.94945
469.515	6.7495
469.825	7.15231
470.135	6.9952
470.444	6.69493
470.754	6.16095
471.063	6.4413
471.373	7.05725
471.682	6.98742
471.991	6.9134
472.301	6.29187
472.61	6.4499
472.919	6.66932
473.228	6.69966
473.537	6.91073
473.846	6.83954
474.155	6.94136
474.463	6.83633
474.772	6.55404
475.08	6.7952
475.389	6.27414
475.697	6.35823
476.006	7.02167
476.314	7.01337
476.622	6.63048
476.93	6.47435
477.239	6.72745
477.547	6.64954
477.855	6.88854
478.162	6.6243
478.47	6.75227
478.778	6.88189
479.086	7.11374
479.393	6.76071
479.701	7.07348
480.008	6.34461
480.315	6.48488
480.623	6.68653
480.93	6.6818
481.237	6.5063
481.544	6.64093
481.851	6.87059
482.158	7.26859
482.465	6.80992
482.772	6.69707
483.079	7.05624
483.385	7.00807
483.692	6.65483
483.998	6.67065
484.305	6.56492
484.611	7.22687
484.918	7.04106
485.224	6.60092
485.53	6.88008
485.836	6.63357
486.142	6.89125
486.448	6.82836
486.754	6.66207
487.06	6.87981
487.366	7.26698
487.671	6.55121
487.977	6.98514
488.282	6.80183
488.588	6.83425
488.893	6.78197
489.199	7.02673
489.504	7.20196
489.809	6.87094
490.114	6.94392
490.419	7.38205
490.724	6.68579
491.029	6.5785
491.334	7.12501
491.639	7.25057
491.943	7.08709
492.248	7.25632
492.553	7.46365
492.857	7.06106
493.162	7.1538
493.466	6.94112
493.77	7.24719
494.074	7.30169
494.378	7.08358
494.683	7.09702
494.987	7.43592
495.29	7.18208
495.594	7.37248
495.898	7.08132
496.202	7.17949
496.505	7.37472
496.809	7.06101
497.113	7.45335
497.416	7.32507
497.719	7.61656
498.023	7.93618
498.326	7.72216
498.629	7.26912
498.932	7.33705
499.235	7.84195
499.538	7.76695
499.841	7.56619
500.144	7.85092
500.446	7.84822
500.749	8.19594
501.052	7.31853
501.354	7.73447
501.657	8.14486
501.959	7.9829
502.261	7.53217
502.564	8.02615
502.866	7.76369
503.168	8.04789
503.47	8.03616
503.772	8.10631
504.074	8.13751
504.376	8.18154
504.677	8.55472
504.979	8.4701
505.281	8.12513
505.582	8.78306
505.884	8.57027
506.185	8.5445
506.486	8.45185
506.788	8.85071
507.089	9.10701
507.39	8.63809
507.691	8.91899
507.992	8.53847
508.293	9.07358
508.594	9.05267
508.895	9.12498
509.195	8.88901
509.496	9.29465
509.797	9.38532
510.097	9.33409
510.398	9.52882
510.698	9.31884
510.998	9.54501
511.298	9.58329
511.599	9.70272
511.899	9.98451
512.199	9.76258
512.499	9.98259
512.799	10.25824
513.098	10.22182
513.398	10.08863
513.698	10.17717
513.997	10.39034
514.297	10.32093
514.596	10.70162
514.896	10.57816
515.195	10.88969
515.494	10.45166
515.794	10.86428
516.093	11.06741
516.392	11.10499
516.691	11.33
516.99	11.3645
517.288	11.71689
517.587	11.6857
517.886	11.99154
518.185	11.85266
518.483	12.15744
518.782	12.00504
519.08	12.14156
519.378	12.59322
519.677	12.0021
519.975	12.25275
520.273	12.61591
520.571	12.50727
520.869	12.56941
521.167	12.87017
521.465	13.24249
521.763	13.25388
522.061	13.39446
522.358	13.48797
522.656	13.5182
522.953	13.26215
523.251	13.57818
523.548	13.63217
523.846	13.90451
524.143	13.66441
524.44	13.54652
524.737	14.06649
525.034	14.38612
525.331	14.11829
525.628	14.34593
525.925	14.41163
526.222	14.16567
526.518	14.44965
526.815	14.52317
527.112	14.85656
527.408	14.94487
527.705	15.20294
528.001	14.94798
528.297	14.86908
528.593	14.48378
528.89	15.14638
529.186	15.48169
529.482	14.89462
529.778	15.25013
530.074	15.45021
530.369	15.60389
530.665	15.28348
530.961	15.21226
531.256	15.56634
531.552	15.11746
531.847	15.51858
532.143	15.22824
532.438	15.27911
532.733	15.55905
533.029	15.39885
533.324	15.56011
533.619	15.22937
533.914	15.54529
534.209	15.38688
534.504	15.36738
534.798	15.59815
535.093	15.08426
535.388	15.42379
535.682	15.37796
535.977	14.61234
536.271	15.50818
536.566	14.83827
536.86	15.38134
537.154	15.4207
537.448	15.30651
537.742	15.1648
538.037	15.24055
538.33	15.06035
538.624	15.15795
538.918	14.86624
539.212	15.2559
539.506	15.18475
539.799	15.50875
540.093	15.11844
540.386	15.21064
540.68	15.31321
540.973	15.24527
541.266	15.38646
541.56	15.53027
541.853	15.08866
542.146	15.36467
542.439	15.38647
542.732	15.29416
543.025	15.33085
543.318	15.48286
543.61	15.35572
543.903	15.46266
544.196	15.40079
544.488	15.6931
544.781	15.74794
545.073	15.77487
545.365	15.7187
545.658	15.81
545.95	15.70442
546.242	15.8487
546.534	15.84717
546.826	15.86487
547.118	15.5364
547.41	16.1046
547.702	16.02022
547.993	15.97876
548.285	16.29186
548.577	16.00396
548.868	15.94043
549.16	16.19532
549.451	16.6708
549.742	16.53003
550.034	16.52029
550.325	16.15277
550.616	16.53348
550.907	16.68054
551.198	16.955
551.489	16.63946
551.78	16.9361
552.07	16.77263
552.361	16.7816
552.652	17.21583
552.942	16.8461
553.233	16.65517
553.523	17.206
553.814	17.16947
554.104	17.11065
554.394	16.97853
554.684	17.19691
554.975	17.39874
555.265	17.26142
555.555	17.25661
555.845	17.8235
556.134	16.92979
556.424	17.18439
556.714	17.12426
557.003	17.29737
557.293	17.35255
557.583	17.61801
557.872	17.5283
558.161	17.36887
558.451	17.48805
558.74	17.69859
559.029	17.25063
559.318	17.3923
559.607	17.44913
559.896	17.28202
560.185	17.61509
560.474	16.9455
560.763	17.04234
561.051	17.05622
561.34	17.66003
561.629	17.005
561.917	17.12143
562.205	17.46079
562.494	16.92812
562.782	16.84215
563.07	16.63045
563.359	16.94214
563.647	16.79932
563.935	17.08896
564.223	16.51865
564.51	16.91284
564.798	16.76916
565.086	17.17662
565.374	16.9299
565.661	16.73061
565.949	16.96907
566.236	17.06836
566.524	16.6042
566.811	16.42636
567.099	16.7525
567.386	16.77656
567.673	16.60905
567.96	16.73808
568.247	16.86238
568.534	16.56445
568.821	16.6989
569.108	16.60174
569.394	16.62376
569.681	16.72366
569.968	16.74754
570.254	16.70099
570.541	16.63882
570.827	16.58643
571.114	16.23329
571.4	16.09909
571.686	16.27449
571.972	16.27296
572.258	16.03807
572.544	16.36645
572.83	16.42445
573.116	16.19209
573.402	16.15606
573.688	16.17628
573.973	16.35431
574.259	15.93005
574.545	16.5749
574.83	16.08209
575.116	16.44232
575.401	16.0451
575.686	15.9561
575.971	16.00444
576.257	15.85545
576.542	15.71009
576.827	16.02628
577.112	16.05528
577.397	16.05293
577.681	16.05123
577.966	15.51494
578.251	15.50058
578.536	15.71769
578.82	16.0499
579.105	15.65113
579.389	15.80398
579.673	15.61813
579.958	15.49361
580.242	15.5897
580.526	15.31863
580.81	15.56013
581.094	15.30125
581.378	15.66189
581.662	15.42107
581.946	15.68639
582.23	15.14879
582.513	15.23282
582.797	15.50301
583.081	15.1812
583.364	15.27808
583.648	15.04185
583.931	15.02196
584.214	15.22325
584.498	15.221
584.781	15.28881
585.064	14.90752
585.347	15.24853
585.63	14.89623
585.913	15.01173
586.196	15.10878
586.478	14.91341
586.761	14.65672
587.044	15.20963
587.326	14.8906
587.609	15.13334
587.891	14.63712
588.174	14.57989
588.456	14.93339
588.738	14.87513
589.02	14.81475
589.303	14.62261
589.585	14.42178
589.867	14.78368
590.149	14.35365
590.43	14.73262
590.712	14.48641
590.994	14.79664
591.276	14.63622
591.557	14.62611
591.839	14.77914
592.12	14.44118
592.402	14.16336
592.683	14.68103
592.964	14.1075
593.245	13.89106
593.527	14.56804
593.808	14.41477
594.089	14.35806
594.37	14.26561
594.65	14.16613
594.931	14.14997
595.212	14.16231
595.493	14.15472
595.773	14.10814
596.054	14.08453
596.334	14.1093
596.615	14.20056
596.895	13.86565
597.175	14.04294
597.456	14.17456
597.736	13.66727
598.016	13.6969
598.296	13.88666
598.576	13.70449
598.856	13.63036
599.136	13.84525
599.415	13.75251
599.695	13.69667
599.975	13.5824
600.254	13.53128
600.534	13.74839
600.813	13.7004
601.093	13.6356
601.372	13.76144
601.651	13.3505
601.93	13.3401
602.209	13.32751
602.488	13.34213
602.767	13.24337
603.046	13.43237
603.325	13.39508
603.604	13.13908
603.883	13.03572
604.161	13.00426
604.44	13.13632
604.718	13.2155
604.997	12.96239
605.275	12.99253
605.554	12.85578
605.832	12.76513
606.11	12.82892
606.388	12.90466
606.666	12.43195
606.944	12.6865
607.222	12.47761
607.5	12.77898
607.778	12.38529
608.056	12.36781
608.333	12.66497
608.611	12.6402
608.889	12.52988
609.166	12.43596
609.444	12.1381
609.721	12.34022
609.998	12.48955
610.275	12.19048
610.553	12.00163
610.83	11.9893
611.107	12.061
611.384	11.89236
611.661	12.03697
611.937	11.91998
612.214	11.98864
612.491	12.02061
612.768	12.09707
613.044	11.90707
613.321	11.97379
613.597	12.01287
613.874	11.89831
614.15	11.49082
614.426	11.81452
614.702	11.67294
614.978	11.68947
615.255	11.45917
615.531	11.7714
615.806	11.87415
616.082	11.58883
616.358	11.52844
616.634	11.34208
616.91	11.48868
617.185	11.53899
617.461	11.53279
617.736	11.61107
618.012	11.31763
618.287	11.40013
618.562	11.46881
618.838	11.62742
619.113	11.65954
619.388	11.43061
619.663	11.673
619.938	11.33375
620.213	11.53575
620.488	11.28286
620.762	11.45599
621.037	11.52704
621.312	11.39367
621.586	11.38725
621.861	11.56358
622.135	11.41782
622.41	11.52778
622.684	11.57045
622.958	11.29258
623.233	11.40954
623.507	11.40914
623.781	11.5493
624.055	11.3685
624.329	11.66607
624.603	11.57891
624.876	11.61625
625.15	11.30417
625.424	11.44173
625.698	11.57302
625.971	11.61914
626.245	11.46052
626.518	11.54555
626.791	11.2892
627.065	11.82204
627.338	11.69204
627.611	11.48252
627.884	11.40202
628.157	11.55857
628.43	11.46186
628.703	11.3452
628.976	11.14104
629.249	11.3011
629.522	11.54148
629.794	11.45969
630.067	11.47618
630.339	11.17134
630.612	11.74203
630.884	11.47872
631.157	11.72845
631.429	11.06298
631.701	11.19957
631.973	11.15915
632.245	11.44291
632.518	11.2673
632.789	11.18385
633.061	11.37025
633.333	11.40457
633.605	11.20545
633.877	11.15758
634.148	11.43903
634.42	11.30516
634.691	10.77277
634.963	11.16553
635.234	10.96735
635.506	10.74441
635.777	10.56692
636.048	10.83608
636.319	10.87313
636.59	10.73804
636.861	10.56967
637.132	10.71912
637.403	10.60051
637.674	11.00187
637.945	10.39444
638.216	10.48211
638.486	10.48043
638.757	10.49976
639.027	10.32594
639.298	10.26591
639.568	9.96574
639.838	9.94805
640.109	9.82305
640.379	10.11413
640.649	9.80123
640.919	9.68636
641.189	9.85868
641.459	9.71241
641.729	9.46394
641.999	9.61621
642.269	9.55307
642.538	9.57963
642.808	9.35411
643.077	9.54366
643.347	9.54918
643.616	9.10661
643.886	9.26048
644.155	9.10911
644.424	9.241
644.693	8.94694
644.963	9.04813
645.232	8.74456
645.501	8.80659
645.77	8.9657
646.038	8.6678
646.307	8.75018
646.576	8.40367
646.845	8.75505
647.113	8.79994
647.382	8.49944
647.65	8.51603
647.919	8.47574
648.187	8.51097
648.455	8.27279
648.724	8.34169
648.992	8.20641
649.26	8.50243
649.528	8.30038
649.796	8.3399
650.064	8.44919
650.332	8.21697
650.6	8.04843
650.867	8.22834
651.135	8.22605
651.403	8.28368
651.67	8.29232
651.938	8.23887
652.205	8.18569
652.473	8.08791
652.74	8.10737
653.007	8.29119
653.274	8.03584
653.541	8.08698
653.808	8.07556
654.075	8.22855
654.342	8.1371
654.609	7.98984
654.876	8.30449
655.143	8.14013
655.409	8.26403
655.676	8.03617
655.943	8.36656
656.209	8.03507
656.475	7.96852
656.742	8.14812
657.008	8.00745
657.274	7.84905
657.541	8.17533
657.807	8.07311
658.073	8.27138
658.339	8.01164
658.605	7.95763
658.871	7.91145
659.136	7.78732
659.402	8.02719
659.668	7.72607
659.933	7.58201
660.199	7.68242
660.464	7.66579
660.73	7.72517
660.995	7.73773
661.261	7.45252
661.526	7.72368
661.791	7.75229
662.056	7.30118
662.321	7.60398
662.586	7.37157
662.851	7.5281
663.116	7.33224
663.381	7.32599
663.646	7.5633
663.91	7.15885
664.175	7.23067
664.439	7.29142
664.704	7.18149
664.968	7.2092
665.233	7.25133
665.497	7.19745
665.761	6.94472
666.025	7.28584
666.29	7.19578
666.554	6.91505
666.818	7.01297
667.082	6.95274
667.345	7.0274
667.609	7.11571
667.873	6.99779
668.137	6.71309
668.4	6.98494
668.664	6.88611
668.927	7.03163
669.191	6.639
669.454	6.9122
669.718	6.54751
669.981	6.67202
670.244	6.80714
670.507	6.83597
670.77	6.59075
671.033	6.77386
671.296	6.98626
671.559	6.83519
671.822	6.63884
672.085	6.75292
672.348	6.85968
672.61	6.75668
672.873	6.79663
673.135	6.7369
673.398	6.91553
673.66	6.82051
673.922	6.86978
674.185	6.61557
674.447	6.89692
674.709	6.81109
674.971	6.96803
675.233	6.81574
675.495	6.97988
675.757	6.93095
676.019	6.81097
676.281	6.79846
676.542	6.69694
676.804	6.90133
677.066	6.8088
677.327	6.81733
677.589	6.64862
677.85	7.07058
678.112	6.89458
678.373	7.25602
678.634	6.99498
678.895	7.00746
679.156	7.09448
679.417	7.12338
679.678	7.30428
679.939	7.24615
680.2	7.35876
680.461	7.48711
680.722	7.40637
680.982	7.39929
681.243	7.3765
681.504	7.51078
681.764	7.49661
682.025	7.5059
682.285	7.61422
682.545	7.45411
682.806	7.91604
683.066	7.66752
683.326	8.0302
683.586	7.74367
683.846	8.1349
684.106	8.15767
684.366	8.49354
684.626	8.31245
684.885	8.5901
685.145	8.81447
685.405	8.93622
685.664	9.07819
685.924	8.75189
686.183	9.06497
686.443	9.29659
686.702	9.2354
686.961	9.73213
687.221	9.91703
687.48	10.17015
687.739	10.17672
687.998	10.36644
688.257	10.43347
688.516	10.69639
688.775	10.78914
689.033	11.1128
689.292	11.42494
689.551	11.56671
689.809	11.98282
690.068	12.34335
690.326	12.32969
690.585	12.68975
690.843	12.55245
691.102	13.3906
691.36	13.51731
691.618	13.86465
691.876	14.15737
692.134	14.57776
692.392	14.52812
692.65	15.15915
692.908	15.34089
693.166	15.50125
693.424	15.91893
693.681	16.27771
693.939	16.67717
694.197	17.139
694.454	17.31246
694.712	17.73386
694.969	17.98626
695.226	18.38512
695.484	18.66901
695.741	18.99878
695.998	19.64191
696.255	19.89672
696.512	20.21556
696.769	20.74426
697.026	21.22983
697.283	21.8178
697.54	22.2561
697.796	22.37352
698.053	22.6497
698.31	23.06728
698.566	23.67923
698.823	23.91889
699.079	24.40173
699.336	24.68105
699.592	25.19013
699.848	25.5749
700.104	25.7923
700.361	26.6242
700.617	26.71624
700.873	26.67992
701.129	27.35182
701.384	27.78577
701.64	28.16257
701.896	28.49821
702.152	28.66051
702.407	29.03596
702.663	29.49028
702.919	29.94373
703.174	30.06697
703.43	30.24593
703.685	30.73782
703.94	31.16672
704.195	31.3621
704.451	31.79151
704.706	32.33493
704.961	32.27632
705.216	32.83787
705.471	33.03502
705.726	33.38304
705.98	33.69602
706.235	34.12109
706.49	34.22515
706.745	34.42627
706.999	34.4634
707.254	34.96271
707.508	35.15951
707.762	35.48296
708.017	35.43296
708.271	35.84968
708.525	36.13552
708.779	36.30935
709.034	36.25084
709.288	36.86401
709.542	36.79236
709.796	36.98101
710.049	37.28313
710.303	37.63961
710.557	37.62972
710.811	38.09172
711.064	38.22921
711.318	38.45152
711.571	38.25924
711.825	38.93609
712.078	39.01079
712.331	39.32089
712.585	39.22617
712.838	39.25155
713.091	39.41251
713.344	39.63728
713.597	39.60896
713.85	39.71863
714.103	39.72287
714.356	39.62026
714.609	40.11326
714.862	39.83174
715.114	39.6651
715.367	40.07539
715.619	40.19895
715.872	40.34266
716.124	39.98368
716.377	40.18239
716.629	40.469
716.881	40.26457
717.133	40.55773
717.386	40.20859
717.638	40.42571
717.89	40.39848
718.142	40.7003
718.394	40.68146
718.645	40.56987
718.897	40.73586
719.149	40.3599
719.401	40.81143
719.652	41.0267
719.904	41.03381
720.155	40.85961
720.407	41.28993
720.658	40.86514
720.909	41.33169
721.161	41.00659
721.412	41.63585
721.663	41.66488
721.914	42.06728
722.165	41.24818
722.416	41.45962
722.667	41.70916
722.918	41.7555
723.169	41.97311
723.419	42.13919
723.67	41.88664
723.921	42.1635
724.171	42.11242
724.422	42.39032
724.672	42.32996
724.922	42.14982
725.173	42.47814
725.423	42.49274
725.673	42.79555
725.923	42.54216
726.173	42.61981
726.423	42.61479
726.673	42.66265
726.923	42.67478
727.173	43.00064
727.423	42.74822
727.673	42.55875
727.922	42.67474
728.172	42.73621
728.421	43.41621
728.671	43.78471
728.92	43.37333
729.17	42.72489
729.419	43.18958
729.668	43.02638
729.918	43.08862
730.167	43.19233
730.416	42.99839
730.665	43.65481
730.914	43.51864
731.163	43.2945
731.411	43.57528
731.66	43.90078
731.909	43.63204
732.158	43.80122
732.406	44.09792
732.655	43.06286
732.903	43.5106
733.152	43.56709
733.4	43.62798
733.648	43.85195
733.897	43.59668
734.145	43.55931
734.393	44.20147
734.641	43.81178
734.889	43.34194
735.137	43.84977
735.385	44.09683
735.633	43.96398
735.881	44.11364
736.129	43.62877
736.376	43.87526
736.624	44.21245
736.871	43.89302
737.119	44.1807
737.366	44.10616
737.614	44.15719
737.861	44.12878
738.108	43.81651
738.356	44.11993
738.603	44.56105
738.85	44.06926
739.097	44.14373
739.344	44.30928
739.591	43.97413
739.838	44.40798
740.084	44.41382
740.331	44.43948
740.578	44.34091
740.825	44.46624
741.071	43.97854
741.318	44.13167
741.564	44.30194
741.811	44.70496
742.057	44.1369
742.303	44.32882
742.549	44.49013
742.796	44.15298
743.042	44.67498
743.288	44.58599
743.534	43.98753
743.78	44.58367
744.026	44.54016
744.271	44.89702
744.517	44.26548
744.763	44.34961
745.009	44.7041
745.254	44.36331
745.5	44.38699
745.745	44.9742
745.991	44.4343
746.236	44.84921
746.481	44.54596
746.727	44.70717
746.972	44.72692
747.217	44.45218
747.462	45.14462
747.707	44.60102
747.952	44.70131
748.197	44.57075
748.442	44.75736
748.686	44.34388
748.931	44.47733
749.176	44.35116
749.421	44.43516
749.665	44.28924
749.91	44.35771
750.154	44.48661
750.398	44.74528
750.643	44.60591
750.887	44.55655
751.131	44.56185
751.375	44.40753
751.62	44.64919
751.864	44.83
752.108	44.39349
752.351	44.73857
752.595	44.86283
752.839	44.59755
753.083	44.41789
753.327	44.46144
753.57	44.7791
753.814	44.88322
754.057	44.75917
754.301	44.50986
754.544	45.21981
754.788	44.44114
755.031	45.06261
755.274	45.007
755.517	45.1852
755.761	44.65962
756.004	44.7849
756.247	44.35234
756.49	44.92979
756.732	44.95387
756.975	44.75669
757.218	44.57516
757.461	44.52003
757.704	44.63447
757.946	44.84732
758.189	44.33517
758.431	44.39663
758.674	44.39402
758.916	44.83843
759.158	44.95697
759.401	44.91294
759.643	44.77834
759.885	44.8915
760.127	44.29208
760.369	44.86075
760.611	44.81928
760.853	44.76144
761.095	44.42769
761.337	44.88423
761.579	44.22206
761.82	44.23388
762.062	44.75464
762.304	44.74682
762.545	44.76742
762.787	45.0341
763.028	44.55948
763.269	44.54006
763.511	44.75478
763.752	44.62589
763.993	44.59829
764.234	45.1205
764.475	45.05053
764.716	44.46171
764.957	44.47931
765.198	45.20718
765.439	44.6461
765.68	44.28527
765.921	44.34266
766.161	44.48864
766.402	45.08153
766.643	44.66647
766.883	44.27252
767.124	44.80325
767.364	45.02412
767.604	44.67165
767.845	44.61158
768.085	45.22009
768.325	44.92535
768.565	45.07405
768.805	45.03898
769.045	44.37772
769.285	44.68063
769.525	44.86319
769.765	45.02667
770.005	44.60007
770.244	44.88922
770.484	45.135
770.724	44.27487
770.963	44.79406
771.203	44.68373
771.442	44.64464
771.682	44.66854
771.921	44.97959
772.16	44.64472
772.399	44.39313
772.639	44.40128
772.878	44.83619
773.117	44.57153
773.356	44.83227
773.595	44.48945
773.834	44.31126
774.072	44.71172
774.311	44.76478
774.55	44.46563
774.789	44.64467
775.027	44.52061
775.266	44.44668
775.504	44.44638
775.743	44.54505
775.981	45.12435
776.219	44.61423
776.458	45.24614
776.696	44.89348
776.934	44.55142
777.172	44.46655
777.41	44.83245
777.648	44.59422
777.886	44.72959
778.124	44.23516
778.362	44.62532
778.6	44.7408
778.837	44.58417
779.075	44.57547
779.313	44.83636
779.55	45.41076
779.788	44.722
780.025	44.95514
780.262	44.64532
780.5	44.8018
780.737	44.87092
780.974	44.32817
781.211	44.42947
781.449	44.5829
781.686	44.94402
781.923	44.97237
782.159	44.39756
782.396	44.30305
782.633	44.39287
782.87	44.54118
783.107	44.8915
783.343	44.52897
783.58	44.41869
783.816	44.92968
784.053	44.75226
784.289	44.78532
784.526	44.77485
784.762	44.83156
784.998	44.96447
785.235	44.23664
785.471	44.93201
785.707	44.25301
785.943	44.4265
786.179	44.75517
786.415	44.39489
786.651	44.51307
786.887	44.59442
787.122	44.75313
787.358	44.87852
787.594	44.46602
787.829	44.5771
788.065	44.87358
788.3	44.56549
788.536	44.84313
788.771	44.70604
789.006	44.4001
789.242	44.31622
789.477	44.16915
789.712	44.45051
789.947	44.65645
790.182	44.20217
790.417	44.44478
790.652	44.30727
790.887	44.85733
791.122	44.20177
791.357	44.50332
791.591	44.62538
791.826	44.38626
792.061	44.28078
792.295	44.62244
792.53	44.47391
792.764	44.92227
792.999	44.66211
793.233	44.97543
793.467	44.78659
793.701	44.37908
793.936	44.77322
794.17	44.16321
794.404	44.63519
794.638	44.11094
794.872	44.75807
795.106	44.49769
795.34	44.67833
795.573	44.49687
795.807	44.34484
796.041	44.89356
796.274	44.38988
796.508	44.80198
796.741	44.28631
796.975	44.89504
797.208	44.65365
797.442	44.65324
797.675	44.42769
797.908	44.29933
798.141	44.13289
798.375	44.53882
798.608	44.12935
798.841	44.67085
799.074	44.66935
799.306	44.62137
799.539	44.17121
799.772	44.71107
800.005	44.52285
800.238	45.07441
800.47	44.87725
800.703	44.50604
800.935	44.59046
801.168	44.76273
801.4	43.99492
801.633	44.53755
801.865	44.26408
802.097	44.39311
802.329	44.63012
802.562	44.00087
802.794	45.06569
803.026	44.1838
803.258	44.8632
803.49	44.69805
803.721	44.72958
803.953	44.12665
804.185	44.57165
804.417	44.53457
804.648	45.09044
804.88	44.39384
805.112	44.55946
805.343	44.19174
805.575	44.7001
805.806	44.45174
806.037	44.40395
806.269	44.11605
806.5	44.61685
806.731	44.1948
806.962	44.88802
807.193	44.16894
807.424	44.70745
807.655	44.97454
807.886	45.33098
808.117	36.00073
808.348	33.33401
808.578	35.71469
