Data from Reflection__10__10-02-17-543.txt Node

Date: Wed Jul 02 10:02:17 BST 2025
User: Jamie
Spectrometer: HDX00312
Trigger mode: 0
Integration Time (sec): 1.070000E-1
Scans to average: 10
Nonlinearity correction enabled: true
Boxcar width: 0
Storing dark spectrum: false
XAxis mode: Wavelengths
Number of Pixels in Spectrum: 2068
>>>>>Begin Spectral Data<<<<<
196.211	184.61438
196.582	169.0901
196.954	108.33325
197.325	289.65317
197.696	193.24685
198.067	162.94019
198.438	135.81954
198.809	111.4029
199.18	100.58782
199.551	100.18955
199.922	100.27442
200.293	102.87285
200.663	99.54353
201.034	102.27556
201.404	97.64474
201.774	104.21638
202.144	101.48855
202.515	98.63005
202.885	101.26493
203.255	104.53507
203.625	103.64143
203.994	100.33938
204.364	96.84085
204.734	105.70569
205.103	99.88978
205.473	102.012
205.842	100.85188
206.212	103.2393
206.581	100.43925
206.95	99.12438
207.319	96.25302
207.688	95.61888
208.057	99.53949
208.426	94.75847
208.795	96.15378
209.163	100.43166
209.532	96.4843
209.9	95.30454
210.269	92.56945
210.637	90.64991
211.005	92.51842
211.374	92.3901
211.742	93.56547
212.11	88.9034
212.478	91.58122
212.846	93.55784
213.213	90.64897
213.581	90.97121
213.949	85.71091
214.316	87.19169
214.684	85.68087
215.051	82.81411
215.418	86.0963
215.786	80.52546
216.153	83.86551
216.52	81.31494
216.887	75.781
217.254	76.58028
217.62	76.28278
217.987	75.62148
218.354	71.18576
218.72	69.36427
219.087	68.1422
219.453	65.967
219.819	62.48825
220.186	59.8918
220.552	57.73686
220.918	55.27742
221.284	52.65143
221.65	49.15722
222.016	46.98138
222.381	45.62476
222.747	43.09709
223.113	41.88065
223.478	41.39405
223.844	39.62461
224.209	38.78687
224.574	37.85546
224.939	37.57419
225.304	35.85453
225.669	35.84732
226.034	34.78653
226.399	34.21082
226.764	33.9894
227.129	33.57888
227.493	33.39967
227.858	33.10001
228.222	32.40079
228.587	32.50931
228.951	32.0794
229.315	32.33674
229.679	31.66814
230.043	31.54242
230.407	31.23351
230.771	31.14943
231.135	31.47982
231.499	31.26739
231.862	31.17573
232.226	31.11555
232.589	31.0034
232.953	31.03053
233.316	31.03955
233.679	30.9417
234.042	30.84536
234.405	30.79503
234.768	30.82878
235.131	30.96363
235.494	30.78135
235.857	30.80055
236.22	30.81903
236.582	30.7569
236.945	30.76585
237.307	30.86453
237.669	30.92953
238.032	30.89008
238.394	31.0168
238.756	31.00145
239.118	31.06125
239.48	31.02475
239.842	31.09744
240.204	30.99543
240.565	31.05523
240.927	31.16263
241.288	31.15518
241.65	31.11714
242.011	31.29762
242.373	31.21927
242.734	31.2152
243.095	31.33866
243.456	31.31739
243.817	31.40227
244.178	31.26397
244.539	31.41037
244.899	31.39553
245.26	31.44311
245.621	31.55862
245.981	31.57741
246.341	31.54611
246.702	31.49853
247.062	31.41162
247.422	31.52534
247.782	31.4981
248.142	31.54652
248.502	31.43861
248.862	31.46765
249.222	31.51548
249.582	31.49285
249.941	31.43927
250.301	31.42326
250.66	31.46677
251.02	31.38937
251.379	31.38935
251.738	31.39505
252.097	31.36133
252.456	31.30249
252.815	31.34537
253.174	31.30387
253.533	31.37151
253.892	31.39046
254.25	31.45621
254.609	31.54624
254.967	31.32171
255.326	31.37434
255.684	31.4287
256.042	31.32729
256.4	31.45491
256.759	31.35601
257.117	31.43784
257.474	31.52766
257.832	31.55926
258.19	31.59666
258.548	31.55857
258.905	31.51766
259.263	31.61
259.62	31.63343
259.978	31.65561
260.335	31.69084
260.692	31.84305
261.049	31.74651
261.406	31.90289
261.763	31.91453
262.12	31.92515
262.477	31.90743
262.834	31.8696
263.19	32.09617
263.547	32.15721
263.904	32.10563
264.26	32.15962
264.616	32.22851
264.973	32.24422
265.329	32.52943
265.685	32.4008
266.041	32.4235
266.397	32.50706
266.753	32.6502
267.108	32.76549
267.464	32.78399
267.82	32.86667
268.175	32.94214
268.531	32.94428
268.886	32.98255
269.241	32.96057
269.597	33.09238
269.952	33.06182
270.307	33.13208
270.662	33.3403
271.017	33.31972
271.371	33.26959
271.726	33.34818
272.081	33.45053
272.435	33.53927
272.79	33.58589
273.144	33.52433
273.499	33.65292
273.853	33.71807
274.207	33.69282
274.561	33.74632
274.915	33.75302
275.269	33.96702
275.623	33.98942
275.977	33.97882
276.331	33.96667
276.684	33.96693
277.038	34.11848
277.391	34.09474
277.745	34.01752
278.098	34.04905
278.451	34.09453
278.804	34.13623
279.157	34.34021
279.51	34.33248
279.863	34.31748
280.216	34.37594
280.569	34.35126
280.922	34.46904
281.274	34.46698
281.627	34.46321
281.979	34.44712
282.332	34.5141
282.684	34.69453
283.036	34.7646
283.388	34.77809
283.74	34.78145
284.092	34.74586
284.444	34.84493
284.796	34.84762
285.148	35.02927
285.499	34.93478
285.851	34.75045
286.202	34.98238
286.554	34.85899
286.905	35.0479
287.257	35.00099
287.608	35.15215
287.959	35.05422
288.31	35.04965
288.661	35.11059
289.012	35.26769
289.362	35.24163
289.713	35.11682
290.064	35.37015
290.414	35.38966
290.765	35.27646
291.115	35.47426
291.466	35.48116
291.816	35.61029
292.166	35.64875
292.516	35.59951
292.866	35.65435
293.216	35.69425
293.566	35.77692
293.916	35.83054
294.265	35.81555
294.615	35.81734
294.964	35.97638
295.314	35.98355
295.663	35.98341
296.013	36.05268
296.362	36.01259
296.711	36.17993
297.06	36.02407
297.409	36.17241
297.758	36.29715
298.107	36.2441
298.455	36.32806
298.804	36.34678
299.153	36.40552
299.501	36.28912
299.85	36.32662
300.198	36.46573
300.546	36.48583
300.894	36.46286
301.243	36.45015
301.591	36.45388
301.939	36.49664
302.287	36.55754
302.634	36.54678
302.982	36.5913
303.33	36.60272
303.677	36.62654
304.025	36.72099
304.372	36.67535
304.72	36.74445
305.067	36.73004
305.414	36.6599
305.761	36.81666
306.108	36.83461
306.455	36.81144
306.802	36.93265
307.149	36.92659
307.495	36.90454
307.842	36.8375
308.189	36.93149
308.535	37.06261
308.882	37.08204
309.228	37.07888
309.574	37.1042
309.92	37.16115
310.266	37.1003
310.612	37.10365
310.958	37.06823
311.304	37.18986
311.65	37.16936
311.996	37.29773
312.341	37.29813
312.687	37.34528
313.032	37.30857
313.378	37.33616
313.723	37.36845
314.068	37.4325
314.413	37.49929
314.759	37.45246
315.104	37.58713
315.449	37.41885
315.793	37.57722
316.138	37.61532
316.483	37.68864
316.827	37.62344
317.172	37.7509
317.516	37.78593
317.861	37.78587
318.205	37.77158
318.549	37.95029
318.894	38.00967
319.238	38.00522
319.582	38.06084
319.926	38.0736
320.269	38.05753
320.613	38.20314
320.957	38.21909
321.3	38.45153
321.644	38.33879
321.987	38.34518
322.331	38.42916
322.674	38.58863
323.017	38.61765
323.36	38.60734
323.704	38.7612
324.047	38.75313
324.389	38.75068
324.732	38.9673
325.075	38.99172
325.418	38.98298
325.76	39.0256
326.103	39.12629
326.445	39.1108
326.788	39.18761
327.13	39.29978
327.472	39.30295
327.814	39.42954
328.156	39.51453
328.498	39.68931
328.84	39.62944
329.182	39.7304
329.524	39.84261
329.866	39.76325
330.207	39.92819
330.549	40.0481
330.89	39.99114
331.231	40.24503
331.573	40.29708
331.914	40.1846
332.255	40.34996
332.596	40.39953
332.937	40.48489
333.278	40.68535
333.619	40.62747
333.96	40.76802
334.3	40.70636
334.641	40.88957
334.981	40.93738
335.322	41.00117
335.662	41.1176
336.003	41.16194
336.343	41.24142
336.683	41.27685
337.023	41.255
337.363	41.48519
337.703	41.47257
338.043	41.72202
338.382	41.72371
338.722	41.68779
339.062	41.8612
339.401	41.95618
339.741	41.91101
340.08	41.90299
340.419	42.00045
340.759	42.1426
341.098	42.10309
341.437	42.18112
341.776	42.43808
342.115	42.38366
342.454	42.58365
342.792	42.6602
343.131	42.37779
343.47	42.74789
343.808	42.68347
344.147	42.79033
344.485	42.83787
344.823	42.97189
345.162	42.95868
345.5	43.07452
345.838	43.10766
346.176	43.1015
346.514	43.25987
346.851	43.30779
347.189	43.0751
347.527	43.38969
347.865	43.35203
348.202	43.55936
348.54	43.46974
348.877	43.72373
349.214	43.64085
349.551	43.59383
349.889	43.8849
350.226	43.85654
350.563	43.84567
350.9	43.96282
351.236	43.91028
351.573	43.94567
351.91	43.97283
352.247	44.04226
352.583	43.98753
352.92	44.18578
353.256	44.2444
353.592	44.24895
353.929	44.15285
354.265	44.30529
354.601	44.35369
354.937	44.35748
355.273	44.31114
355.609	44.3884
355.944	44.71942
356.28	44.63891
356.616	44.52629
356.951	44.55981
357.287	44.71296
357.622	44.66068
357.957	44.68035
358.293	44.75382
358.628	44.84308
358.963	44.95003
359.298	44.9291
359.633	44.90433
359.968	45.2774
360.303	45.02981
360.637	45.05886
360.972	44.98724
361.307	45.1576
361.641	45.19174
361.975	45.16964
362.31	45.42783
362.644	45.35516
362.978	45.44132
363.312	45.36975
363.646	45.44587
363.98	45.45312
364.314	45.41324
364.648	45.48438
364.982	45.69628
365.315	45.75204
365.649	45.80321
365.983	45.68519
366.316	45.73486
366.649	45.98326
366.983	46.05578
367.316	46.19469
367.649	46.21989
367.982	45.99862
368.315	46.04322
368.648	46.17311
368.981	45.87005
369.313	46.35469
369.646	46.65971
369.979	46.30524
370.311	46.35569
370.644	46.54513
370.976	46.5904
371.308	46.71319
371.641	46.56647
371.973	46.74523
372.305	46.38903
372.637	46.64148
372.969	46.77982
373.301	46.72284
373.632	46.55914
373.964	46.56628
374.296	46.81703
374.627	46.70149
374.959	46.7996
375.29	47.0559
375.621	46.93653
375.953	46.96188
376.284	47.14611
376.615	47.15837
376.946	47.02569
377.277	47.06661
377.608	47.33419
377.939	47.16847
378.269	47.30721
378.6	47.17745
378.931	47.2321
379.261	47.29743
379.591	47.40379
379.922	47.33329
380.252	47.34962
380.582	47.36684
380.912	47.62233
381.242	47.47603
381.572	47.7657
381.902	47.29061
382.232	47.43192
382.562	47.6264
382.891	47.67069
383.221	47.67574
383.551	47.44745
383.88	47.60327
384.209	47.59951
384.539	47.63567
384.868	47.58932
385.197	47.8263
385.526	47.81536
385.855	47.77615
386.184	48.03636
386.513	47.86208
386.842	47.81028
387.17	47.75581
387.499	48.00997
387.828	47.70515
388.156	47.63051
388.484	47.84443
388.813	47.95369
389.141	48.09389
389.469	47.98189
389.797	47.91921
390.125	47.95518
390.453	47.9387
390.781	47.93087
391.109	47.954
391.437	48.05455
391.764	48.07086
392.092	48.3342
392.419	48.14593
392.747	48.13504
393.074	48.46369
393.401	48.32368
393.729	48.3347
394.056	48.28572
394.383	48.14706
394.71	48.34125
395.037	48.41663
395.363	48.28611
395.69	48.40024
396.017	48.45135
396.344	48.58865
396.67	48.37921
396.997	48.69627
397.323	48.538
397.649	48.55581
397.975	48.42123
398.302	48.34334
398.628	48.30948
398.954	48.5392
399.28	48.61975
399.606	48.70135
399.931	48.49443
400.257	48.84772
400.583	48.54621
400.908	48.7457
401.234	48.86603
401.559	48.64504
401.884	48.55864
402.21	48.66516
402.535	48.86082
402.86	48.91014
403.185	48.82359
403.51	48.9878
403.835	48.87543
404.16	49.01359
404.485	49.31501
404.809	49.13482
405.134	49.11414
405.458	49.23531
405.783	49.24915
406.107	49.26433
406.432	49.35869
406.756	49.04502
407.08	49.20087
407.404	49.15764
407.728	49.29125
408.052	49.37612
408.376	49.70417
408.7	49.61811
409.023	49.41761
409.347	49.76491
409.671	49.49656
409.994	49.79911
410.317	49.72259
410.641	49.78975
410.964	49.64664
411.287	49.64165
411.61	49.79652
411.933	49.95789
412.256	49.78473
412.579	49.98429
412.902	50.12617
413.225	49.9452
413.548	49.84755
413.87	50.04428
414.193	50.17634
414.515	50.2939
414.838	50.17966
415.16	50.34612
415.482	50.52392
415.804	50.43305
416.126	50.63557
416.448	50.75288
416.77	50.37955
417.092	50.3983
417.414	50.56126
417.736	50.70015
418.057	50.49458
418.379	50.4878
418.701	50.57218
419.022	50.74198
419.343	50.64084
419.665	50.7538
419.986	50.93369
420.307	51.02759
420.628	51.10933
420.949	51.34993
421.27	51.23409
421.591	51.28942
421.912	51.30947
422.232	51.18495
422.553	51.21341
422.873	51.3377
423.194	51.38466
423.514	51.43377
423.835	51.65852
424.155	51.60413
424.475	51.79892
424.795	51.37912
425.115	51.50708
425.435	51.79951
425.755	51.78843
426.075	51.82147
426.395	51.98461
426.714	52.10241
427.034	52.24053
427.354	52.06123
427.673	52.07087
427.992	52.17981
428.312	52.25293
428.631	52.47273
428.95	52.35982
429.269	52.36004
429.588	52.1662
429.907	52.42091
430.226	52.59658
430.545	52.78911
430.864	52.89046
431.182	52.25772
431.501	52.78453
431.819	53.06961
432.138	52.67559
432.456	53.0163
432.774	53.11153
433.093	53.28612
433.411	53.26017
433.729	53.26884
434.047	53.11175
434.365	53.07533
434.683	53.26571
435	53.62093
435.318	53.17819
435.636	53.43262
435.953	53.54064
436.271	52.8996
436.588	53.1297
436.906	53.13305
437.223	52.92929
437.54	53.45139
437.857	53.21482
438.174	53.47613
438.491	53.40689
438.808	53.38985
439.125	53.57603
439.442	53.47278
439.758	53.37576
440.075	53.5328
440.392	53.69683
440.708	53.443
441.024	53.61025
441.341	53.67717
441.657	53.44087
441.973	53.68747
442.289	53.666
442.605	53.64277
442.921	53.87012
443.237	53.57928
443.553	54.24057
443.869	53.71113
444.184	53.9411
444.5	53.41044
444.816	53.78442
445.131	53.83544
445.446	53.70052
445.762	53.83744
446.077	53.81875
446.392	53.92048
446.707	53.96777
447.022	53.74884
447.337	53.81367
447.652	53.7871
447.967	53.91535
448.282	53.88325
448.596	53.38842
448.911	54.20275
449.225	54.36224
449.54	54.26144
449.854	53.72484
450.169	53.98406
450.483	53.78456
450.797	54.20154
451.111	54.27051
451.425	53.99628
451.739	53.87323
452.053	53.97119
452.367	54.1049
452.68	53.97087
452.994	54.14343
453.308	54.06773
453.621	53.86264
453.935	54.29569
454.248	54.14984
454.561	54.0556
454.874	54.24777
455.188	54.01453
455.501	53.67427
455.814	53.78586
456.127	53.9937
456.44	54.01293
456.752	53.93187
457.065	53.6588
457.378	53.70523
457.69	54.23449
458.003	54.21191
458.315	53.85779
458.628	53.82514
458.94	53.77307
459.252	53.86745
459.564	53.76481
459.876	53.9334
460.188	53.62495
460.5	54.0096
460.812	53.94979
461.124	53.79962
461.436	54.07534
461.747	54.34948
462.059	53.99521
462.37	53.93953
462.682	54.22341
462.993	53.94914
463.304	53.87656
463.616	54.17019
463.927	53.67934
464.238	53.56803
464.549	53.9114
464.86	53.5658
465.171	54.10255
465.481	53.8516
465.792	54.19282
466.103	53.72416
466.413	53.87246
466.724	53.75991
467.034	53.83701
467.345	53.57755
467.655	54.08656
467.965	53.96752
468.275	53.98198
468.585	54.02638
468.895	53.46858
469.205	54.10052
469.515	54.1237
469.825	54.02325
470.135	54.0196
470.444	53.91063
470.754	53.99214
471.063	54.01136
471.373	53.72089
471.682	53.7672
471.991	54.08863
472.301	54.00662
472.61	54.23073
472.919	53.85351
473.228	54.08735
473.537	54.02815
473.846	54.0301
474.155	53.9902
474.463	53.99865
474.772	53.87515
475.08	54.0978
475.389	54.08503
475.697	54.1093
476.006	53.95905
476.314	53.85692
476.622	53.91166
476.93	54.10001
477.239	53.96749
477.547	54.15687
477.855	54.04569
478.162	54.08255
478.47	54.1577
478.778	54.09383
479.086	54.18337
479.393	54.22455
479.701	54.1243
480.008	53.6989
480.315	54.11244
480.623	54.28048
480.93	54.24697
481.237	54.13758
481.544	54.20586
481.851	54.24907
482.158	54.32639
482.465	53.99843
482.772	54.27919
483.079	54.19697
483.385	54.23735
483.692	54.22794
483.998	54.07011
484.305	54.22505
484.611	54.15701
484.918	54.04966
485.224	54.30032
485.53	54.48333
485.836	54.50709
486.142	54.34827
486.448	54.21179
486.754	54.61186
487.06	54.39408
487.366	54.47551
487.671	54.36626
487.977	54.48504
488.282	54.19492
488.588	54.39162
488.893	54.37941
489.199	54.29058
489.504	54.67962
489.809	54.63797
490.114	54.37152
490.419	54.59398
490.724	54.48204
491.029	54.56205
491.334	54.79271
491.639	54.38697
491.943	54.88937
492.248	54.78868
492.553	54.92644
492.857	54.9809
493.162	54.98825
493.466	54.82946
493.77	54.80212
494.074	55.01571
494.378	55.24352
494.683	55.25269
494.987	55.25209
495.29	55.17829
495.594	55.26868
495.898	55.3553
496.202	55.66772
496.505	55.40306
496.809	55.2489
497.113	55.57495
497.416	55.61388
497.719	55.72545
498.023	55.47462
498.326	55.6614
498.629	55.71713
498.932	55.82803
499.235	55.81941
499.538	55.88155
499.841	55.88963
500.144	56.07448
500.446	55.95662
500.749	55.76709
501.052	56.16378
501.354	55.91284
501.657	56.19611
501.959	56.22069
502.261	56.21884
502.564	56.18636
502.866	56.20491
503.168	56.44193
503.47	56.23857
503.772	56.52873
504.074	56.55062
504.376	56.75542
504.677	56.70555
504.979	56.75536
505.281	56.76264
505.582	56.76769
505.884	57.08431
506.185	56.78639
506.486	57.09336
506.788	57.06921
507.089	57.12078
507.39	57.1925
507.691	57.50858
507.992	57.46167
508.293	57.74685
508.594	57.66106
508.895	57.75012
509.195	57.86408
509.496	58.00957
509.797	57.77271
510.097	57.81697
510.398	58.09592
510.698	58.11881
510.998	58.14756
511.298	58.26395
511.599	58.22436
511.899	58.73314
512.199	58.62691
512.499	58.78398
512.799	58.726
513.098	58.81645
513.398	58.8941
513.698	58.87404
513.997	59.25504
514.297	58.9757
514.596	59.2123
514.896	59.60105
515.195	59.72931
515.494	59.73697
515.794	59.79148
516.093	60.12411
516.392	60.19938
516.691	60.13494
516.99	60.07926
517.288	60.53418
517.587	60.39097
517.886	60.7387
518.185	60.68124
518.483	61.00616
518.782	61.16341
519.08	61.14164
519.378	61.23428
519.677	61.5453
519.975	61.72563
520.273	61.72171
520.571	61.55393
520.869	61.66032
521.167	62.20589
521.465	62.18368
521.763	62.4897
522.061	62.10481
522.358	62.55575
522.656	62.60329
522.953	62.42403
523.251	62.89399
523.548	62.80257
523.846	62.75387
524.143	62.9933
524.44	63.13314
524.737	63.07402
525.034	63.26844
525.331	63.27524
525.628	63.38618
525.925	63.45606
526.222	63.6155
526.518	63.39227
526.815	63.64679
527.112	63.825
527.408	63.62385
527.705	63.99036
528.001	64.05177
528.297	64.5311
528.593	63.89758
528.89	64.37874
529.186	63.87336
529.482	63.97692
529.778	63.69199
530.074	63.90868
530.369	64.12829
530.665	63.97465
530.961	63.89853
531.256	64.09852
531.552	64.22907
531.847	64.14244
532.143	64.06182
532.438	64.11091
532.733	63.85924
533.029	64.14645
533.324	64.03739
533.619	63.88895
533.914	63.8978
534.209	63.88602
534.504	64.00495
534.798	63.94605
535.093	63.90974
535.388	63.96016
535.682	63.91796
535.977	63.83279
536.271	63.66357
536.566	63.93148
536.86	63.65423
537.154	63.65516
537.448	63.71562
537.742	63.50804
538.037	63.68351
538.33	63.47325
538.624	63.32515
538.918	63.36529
539.212	63.39524
539.506	63.77844
539.799	63.55691
540.093	63.55505
540.386	63.07741
540.68	63.34374
540.973	63.35782
541.266	63.39682
541.56	63.44312
541.853	63.34431
542.146	63.34889
542.439	63.39744
542.732	63.4101
543.025	63.55107
543.318	63.78128
543.61	63.81607
543.903	63.69621
544.196	63.95433
544.488	63.68327
544.781	64.06682
545.073	64.05717
545.365	64.18261
545.658	64.27324
545.95	64.14546
546.242	64.17515
546.534	64.3401
546.826	64.59603
547.118	64.71291
547.41	64.56938
547.702	64.87607
547.993	65.02494
548.285	64.81093
548.577	65.0178
548.868	65.15419
549.16	65.24178
549.451	65.05329
549.742	65.14068
550.034	65.20228
550.325	65.57948
550.616	65.36643
550.907	65.21065
551.198	65.658
551.489	65.98612
551.78	65.67127
552.07	65.71886
552.361	65.80502
552.652	65.57048
552.942	65.92011
553.233	66.01476
553.523	66.16868
553.814	65.8897
554.104	66.44845
554.394	66.50732
554.684	66.20288
554.975	66.55259
555.265	66.42543
555.555	66.73873
555.845	66.74053
556.134	66.58779
556.424	66.94345
556.714	66.66054
557.003	66.72722
557.293	66.81584
557.583	67.03397
557.872	66.68013
558.161	67.07888
558.451	67.15701
558.74	66.92524
559.029	67.21206
559.318	67.08974
559.607	66.75123
559.896	67.21303
560.185	67.15624
560.474	66.93063
560.763	67.02968
561.051	67.18589
561.34	67.10283
561.629	67.01895
561.917	67.2116
562.205	66.77068
562.494	67.27719
562.782	67.2788
563.07	67.29493
563.359	67.16601
563.647	67.19531
563.935	67.24813
564.223	67.14946
564.51	67.29372
564.798	67.33103
565.086	67.33632
565.374	67.25505
565.661	67.35016
565.949	67.30879
566.236	67.48095
566.524	67.51104
566.811	67.37244
567.099	67.46815
567.386	67.30049
567.673	67.28078
567.96	67.3875
568.247	67.13724
568.534	67.15045
568.821	67.14413
569.108	67.20824
569.394	67.23535
569.681	67.05109
569.968	67.47729
570.254	67.26284
570.541	67.28896
570.827	67.0867
571.114	67.27027
571.4	67.29923
571.686	67.2977
571.972	67.40075
572.258	67.49924
572.544	67.21905
572.83	67.32227
573.116	67.21709
573.402	67.4612
573.688	67.12612
573.973	67.40147
574.259	67.3379
574.545	67.3821
574.83	67.46178
575.116	67.30197
575.401	67.49739
575.686	67.44451
575.971	67.59253
576.257	67.34845
576.542	67.66551
576.827	67.50082
577.112	67.33892
577.397	67.3831
577.681	67.5812
577.966	67.40804
578.251	67.61466
578.536	67.53725
578.82	67.37989
579.105	67.74951
579.389	67.71072
579.673	67.37367
579.958	67.53968
580.242	67.38651
580.526	67.31462
580.81	67.52243
581.094	67.42892
581.378	67.61584
581.662	67.48106
581.946	67.65739
582.23	67.52272
582.513	67.60994
582.797	67.68385
583.081	67.55434
583.364	67.50241
583.648	67.37742
583.931	67.67439
584.214	67.65229
584.498	67.73243
584.781	67.52101
585.064	67.61061
585.347	67.57577
585.63	67.55625
585.913	67.51032
586.196	67.70955
586.478	67.52398
586.761	67.53846
587.044	67.46215
587.326	67.4315
587.609	67.45753
587.891	67.44023
588.174	67.29692
588.456	67.34676
588.738	67.39659
589.02	67.23665
589.303	67.35938
589.585	67.22968
589.867	67.00378
590.149	66.81482
590.43	66.98454
590.712	66.85929
590.994	66.91428
591.276	66.9123
591.557	66.92613
591.839	66.96142
592.12	67.30527
592.402	67.01355
592.683	66.69317
592.964	66.80658
593.245	66.88659
593.527	66.611
593.808	66.5471
594.089	66.59388
594.37	66.50513
594.65	66.44827
594.931	66.42693
595.212	66.51877
595.493	66.40296
595.773	66.20404
596.054	66.32802
596.334	66.09244
596.615	66.37126
596.895	66.19978
597.175	66.09805
597.456	66.16085
597.736	66.00089
598.016	66.08029
598.296	65.97236
598.576	65.87752
598.856	66.07963
599.136	66.01363
599.415	65.784
599.695	65.7614
599.975	65.563
600.254	65.77476
600.534	65.53024
600.813	65.46013
601.093	65.55714
601.372	65.4618
601.651	65.29063
601.93	65.22659
602.209	65.3002
602.488	65.28298
602.767	65.24613
603.046	65.05848
603.325	65.10172
603.604	65.08989
603.883	65.02028
604.161	64.90721
604.44	64.96082
604.718	64.75753
604.997	64.77254
605.275	64.64798
605.554	64.59033
605.832	64.54889
606.11	64.30591
606.388	64.29421
606.666	64.2967
606.944	64.31069
607.222	64.16466
607.5	64.17411
607.778	64.11171
608.056	63.98587
608.333	63.92713
608.611	63.71237
608.889	63.76489
609.166	63.85496
609.444	63.81743
609.721	63.72433
609.998	63.52044
610.275	63.31549
610.553	63.37445
610.83	63.40186
611.107	63.41376
611.384	63.32407
611.661	63.33771
611.937	63.36942
612.214	63.4554
612.491	63.30067
612.768	63.28059
613.044	63.47644
613.321	63.55039
613.597	63.38366
613.874	63.29979
614.15	63.25724
614.426	63.28992
614.702	63.19654
614.978	63.31103
615.255	63.28077
615.531	63.28746
615.806	63.06227
616.082	63.16057
616.358	63.35812
616.634	63.30905
616.91	63.32398
617.185	63.37452
617.461	63.36923
617.736	63.19891
618.012	63.20517
618.287	63.34625
618.562	63.29224
618.838	63.19194
619.113	63.31085
619.388	63.28404
619.663	63.27094
619.938	63.1082
620.213	63.135
620.488	63.39507
620.762	63.19553
621.037	63.35484
621.312	63.39193
621.586	63.35844
621.861	63.30106
622.135	63.55167
622.41	63.43744
622.684	63.37335
622.958	63.49614
623.233	63.47034
623.507	63.51153
623.781	63.47325
624.055	63.64541
624.329	63.96387
624.603	63.60882
624.876	63.8522
625.15	63.64787
625.424	63.81637
625.698	63.8568
625.971	63.81226
626.245	63.84938
626.518	63.70239
626.791	63.75247
627.065	63.76767
627.338	63.86394
627.611	63.94156
627.884	63.71029
628.157	63.70559
628.43	63.62759
628.703	63.77081
628.976	63.75245
629.249	63.91674
629.522	63.72769
629.794	64.06697
630.067	63.9917
630.339	63.93625
630.612	63.82071
630.884	63.97805
631.157	64.09064
631.429	63.99143
631.701	64.06182
631.973	63.87228
632.245	63.74588
632.518	63.91667
632.789	63.91907
633.061	63.83596
633.333	63.90792
633.605	63.82547
633.877	63.72216
634.148	63.81155
634.42	63.82751
634.691	63.75141
634.963	63.70722
635.234	63.42974
635.506	63.74592
635.777	63.33914
636.048	63.72218
636.319	63.5649
636.59	63.37821
636.861	63.62976
637.132	63.26903
637.403	63.43307
637.674	63.13779
637.945	63.15571
638.216	63.03858
638.486	62.75267
638.757	62.91058
639.027	62.85337
639.298	62.62709
639.568	62.69623
639.838	62.6788
640.109	62.57185
640.379	62.26501
640.649	62.29795
640.919	62.2873
641.189	62.24845
641.459	62.10464
641.729	61.95223
641.999	61.9999
642.269	61.76515
642.538	61.76182
642.808	61.64146
643.077	61.59926
643.347	61.40074
643.616	61.44605
643.886	61.16657
644.155	61.24244
644.424	60.9578
644.693	61.04749
644.963	60.93466
645.232	60.98504
645.501	60.88709
645.77	60.65514
646.038	60.9235
646.307	60.56237
646.576	60.35611
646.845	60.54262
647.113	60.39825
647.382	60.31657
647.65	60.37019
647.919	60.28533
648.187	60.02024
648.455	60.09715
648.724	60.09768
648.992	60.12027
649.26	60.07629
649.528	59.99662
649.796	59.95574
650.064	59.85937
650.332	59.85179
650.6	59.81656
650.867	59.91689
651.135	59.87194
651.403	59.76032
651.67	59.82752
651.938	59.76236
652.205	59.8585
652.473	59.80534
652.74	59.86072
653.007	59.61179
653.274	59.59616
653.541	59.56591
653.808	59.57499
654.075	59.34699
654.342	59.5032
654.609	59.4234
654.876	59.3952
655.143	59.43025
655.409	59.28425
655.676	59.27946
655.943	59.32101
656.209	59.07321
656.475	58.93574
656.742	58.97455
657.008	58.90817
657.274	58.92336
657.541	58.79583
657.807	58.91121
658.073	58.78588
658.339	58.75696
658.605	58.66079
658.871	58.60011
659.136	58.39921
659.402	58.37324
659.668	58.45971
659.933	58.37705
660.199	58.25755
660.464	58.03082
660.73	58.0013
660.995	57.95033
661.261	57.80738
661.526	57.77817
661.791	57.57027
662.056	57.49443
662.321	57.55469
662.586	57.36302
662.851	57.42712
663.116	57.30533
663.381	57.09112
663.646	56.89365
663.91	56.83032
664.175	56.97541
664.439	56.79549
664.704	56.64594
664.968	56.65978
665.233	56.62246
665.497	56.50981
665.761	56.49467
666.025	56.52071
666.29	56.30569
666.554	56.14529
666.818	56.11855
667.082	56.29125
667.345	56.12886
667.609	55.95098
667.873	55.99095
668.137	55.92768
668.4	55.92883
668.664	55.87503
668.927	55.77791
669.191	55.70352
669.454	55.65496
669.718	55.71865
669.981	55.63425
670.244	55.57938
670.507	55.72084
670.77	55.68375
671.033	55.53161
671.296	55.71074
671.559	55.78853
671.822	55.6229
672.085	55.67613
672.348	55.79816
672.61	55.718
672.873	55.77121
673.135	55.78251
673.398	55.78543
673.66	55.90665
673.922	55.88755
674.185	55.95004
674.447	55.91376
674.709	56.03053
674.971	56.10945
675.233	55.92501
675.495	56.00631
675.757	56.18105
676.019	56.19892
676.281	56.35916
676.542	56.27182
676.804	56.37271
677.066	56.44982
677.327	56.53998
677.589	56.75987
677.85	56.7256
678.112	56.83115
678.373	56.77421
678.634	56.99956
678.895	57.03985
679.156	57.15688
679.417	56.98754
679.678	57.17506
679.939	57.34164
680.2	57.27629
680.461	57.42871
680.722	57.58249
680.982	57.73591
681.243	57.86191
681.504	58.04095
681.764	57.98609
682.025	58.15251
682.285	58.49884
682.545	58.52504
682.806	58.51909
683.066	58.92786
683.326	59.15299
683.586	59.21653
683.846	59.51167
684.106	59.66058
684.366	59.74174
684.626	60.02972
684.885	60.2232
685.145	60.53256
685.405	60.7168
685.664	61.01767
685.924	61.40868
686.183	61.57347
686.443	61.88853
686.702	62.02521
686.961	62.27692
687.221	62.37801
687.48	62.83458
687.739	63.05483
687.998	63.41781
688.257	63.63539
688.516	63.86022
688.775	64.22436
689.033	64.39508
689.292	64.70988
689.551	65.08747
689.809	65.40703
690.068	65.79114
690.326	66.09063
690.585	66.35785
690.843	66.76692
691.102	67.11598
691.36	67.40187
691.618	67.86778
691.876	68.09793
692.134	68.41484
692.392	68.78596
692.65	69.27249
692.908	69.59756
693.166	69.9457
693.424	70.36123
693.681	70.79304
693.939	70.91465
694.197	71.47478
694.454	71.49631
694.712	72.11274
694.969	72.3689
695.226	72.52706
695.484	73.13495
695.741	73.47079
695.998	73.72935
696.255	74.16087
696.512	74.55679
696.769	75.06193
697.026	75.45254
697.283	75.9754
697.54	76.15393
697.796	76.68894
698.053	77.00454
698.31	77.39762
698.566	77.98601
698.823	78.08736
699.079	78.67625
699.336	79.35512
699.592	79.5907
699.848	79.92425
700.104	80.51274
700.361	81.04081
700.617	81.45905
700.873	81.65092
701.129	82.08034
701.384	82.65119
701.64	83.12356
701.896	83.67539
702.152	84.01571
702.407	84.50163
702.663	85.18992
702.919	85.43479
703.174	86.06363
703.43	86.77085
703.685	86.82293
703.94	87.37166
704.195	87.75961
704.451	88.14445
704.706	89.00585
704.961	89.28241
705.216	89.73769
705.471	90.1624
705.726	90.7713
705.98	91.36572
706.235	91.93953
706.49	92.5702
706.745	92.97558
706.999	93.42547
707.254	93.90108
707.508	94.44469
707.762	94.8489
708.017	95.4823
708.271	96.06219
708.525	96.56854
708.779	96.82033
709.034	97.28254
709.288	98.08995
709.542	98.4052
709.796	98.79005
710.049	99.14002
710.303	100.02493
710.557	100.22019
710.811	100.74674
711.064	101.25981
711.318	101.44864
711.571	102.19326
711.825	102.45847
712.078	102.99335
712.331	103.42637
712.585	103.97292
712.838	104.38197
713.091	104.61027
713.344	105.06683
713.597	105.74343
713.85	105.94742
714.103	106.26737
714.356	106.65772
714.609	107.10937
714.862	107.62493
715.114	107.84943
715.367	108.26688
715.619	108.57724
715.872	109.03234
716.124	109.2484
716.377	109.70055
716.629	110.12834
716.881	110.3316
717.133	110.63575
717.386	110.90614
717.638	111.07366
717.89	111.46553
718.142	112.06083
718.394	111.96053
718.645	112.28721
718.897	112.5864
719.149	112.72585
719.401	112.96877
719.652	113.30162
719.904	113.49429
720.155	113.91809
720.407	113.89722
720.658	114.3773
720.909	114.3834
721.161	114.7021
721.412	114.99516
721.663	115.44596
721.914	115.65542
722.165	115.75133
722.416	115.99388
722.667	116.50699
722.918	116.51846
723.169	116.83084
723.419	116.84226
723.67	117.00824
723.921	117.35007
724.171	117.55215
724.422	117.81957
724.672	118.0615
724.922	118.12426
725.173	118.56227
725.423	118.41813
725.673	119.08675
725.923	118.88183
726.173	119.1283
726.423	119.56277
726.673	119.84208
726.923	119.97157
727.173	120.16959
727.423	120.11585
727.673	120.47995
727.922	120.36159
728.172	120.65416
728.421	121.07844
728.671	121.04926
728.92	121.27729
729.17	121.6289
729.419	121.44938
729.668	121.87857
729.918	122.02829
730.167	122.45143
730.416	122.50708
730.665	122.73043
730.914	122.81238
731.163	122.92939
731.411	123.01984
731.66	123.06437
731.909	123.32849
732.158	123.59796
732.406	123.74799
732.655	123.99288
732.903	123.79938
733.152	124.18685
733.4	123.89772
733.648	124.32145
733.897	124.2522
734.145	124.80486
734.393	124.69769
734.641	124.76942
734.889	125.01085
735.137	124.85623
735.385	125.23647
735.633	125.16103
735.881	125.08702
736.129	125.31119
736.376	125.63528
736.624	125.84204
736.871	125.47551
737.119	125.75721
737.366	126.06886
737.614	126.02672
737.861	126.37379
738.108	126.23572
738.356	126.33763
738.603	126.36093
738.85	126.60526
739.097	126.68535
739.344	127.02256
739.591	126.98654
739.838	127.04161
740.084	127.2669
740.331	127.20994
740.578	127.19247
740.825	127.2932
741.071	127.45283
741.318	127.28071
741.564	127.51626
741.811	127.68082
742.057	127.57594
742.303	127.88706
742.549	127.76853
742.796	128.2596
743.042	128.14484
743.288	128.02612
743.534	128.00553
743.78	128.08274
744.026	128.08324
744.271	128.21008
744.517	128.21266
744.763	128.18581
745.009	128.50426
745.254	128.58573
745.5	128.72858
745.745	128.64469
745.991	128.9859
746.236	129.20516
746.481	129.13044
746.727	129.22295
746.972	129.34362
747.217	129.53324
747.462	129.4022
747.707	129.68769
747.952	129.58248
748.197	129.89124
748.442	129.98681
748.686	130.22381
748.931	130.20675
749.176	130.34023
749.421	130.39481
749.665	130.35505
749.91	130.80783
750.154	130.77691
750.398	130.92913
750.643	130.76266
750.887	130.68615
751.131	130.8791
751.375	130.87349
751.62	131.11352
751.864	131.12741
752.108	131.36272
752.351	131.05373
752.595	131.23827
752.839	131.42818
753.083	131.7292
753.327	131.64259
753.57	131.73646
753.814	131.30336
754.057	131.58897
754.301	131.53172
754.544	131.64359
754.788	131.7981
755.031	132.01244
755.274	131.94265
755.517	131.982
755.761	131.67467
756.004	131.83423
756.247	132.13272
756.49	132.24033
756.732	132.10263
756.975	132.20562
757.218	132.1735
757.461	132.38173
757.704	132.41748
757.946	132.58082
758.189	132.58061
758.431	132.83871
758.674	132.50974
758.916	132.76107
759.158	132.77838
759.401	132.56665
759.643	132.91126
759.885	133.3176
760.127	133.01068
760.369	133.01602
760.611	132.9656
760.853	133.25614
761.095	133.09643
761.337	133.3238
761.579	133.18851
761.82	133.41028
762.062	133.28701
762.304	133.41879
762.545	133.71734
762.787	133.62634
763.028	133.74833
763.269	133.63954
763.511	133.75822
763.752	133.7916
763.993	133.6692
764.234	133.86446
764.475	134.00085
764.716	133.9422
764.957	133.92798
765.198	133.9893
765.439	134.09886
765.68	134.1047
765.921	134.53995
766.161	134.42435
766.402	134.30171
766.643	134.7123
766.883	134.68741
767.124	134.88123
767.364	135.00937
767.604	135.10535
767.845	134.97808
768.085	135.36071
768.325	135.23801
768.565	135.21126
768.805	135.34995
769.045	135.52864
769.285	135.47952
769.525	135.68278
769.765	135.74047
770.005	135.61249
770.244	135.76141
770.484	136.21197
770.724	135.90493
770.963	135.99509
771.203	136.25034
771.442	135.65807
771.682	135.89528
771.921	135.92198
772.16	135.95718
772.399	136.25984
772.639	135.91958
772.878	136.22432
773.117	136.15608
773.356	136.70705
773.595	136.22032
773.834	136.20011
774.072	136.48947
774.311	136.38668
774.55	136.59192
774.789	136.39938
775.027	136.6239
775.266	136.59792
775.504	136.69904
775.743	136.54506
775.981	136.51486
776.219	136.89157
776.458	136.55685
776.696	137.19174
776.934	136.70763
777.172	137.23524
777.41	136.96661
777.648	137.04404
777.886	136.7433
778.124	137.21182
778.362	137.20434
778.6	137.01619
778.837	137.4959
779.075	136.97689
779.313	137.27542
779.55	137.74812
779.788	137.37678
780.025	137.21249
780.262	137.63598
780.5	137.90413
780.737	137.96355
780.974	138.13404
781.211	137.59177
781.449	137.90597
781.686	137.94539
781.923	137.97968
782.159	137.74509
782.396	137.8332
782.633	137.98826
782.87	138.32784
783.107	138.18307
783.343	138.28416
783.58	138.24032
783.816	138.13581
784.053	137.87664
784.289	138.04488
784.526	138.01176
784.762	138.41507
784.998	138.39968
785.235	138.3221
785.471	138.26052
785.707	138.29815
785.943	138.62016
786.179	138.36644
786.415	138.59229
786.651	138.64559
786.887	138.72081
787.122	138.47782
787.358	138.21062
787.594	138.4474
787.829	138.36363
788.065	138.8234
788.3	138.75817
788.536	138.89816
788.771	139.35792
789.006	139.04396
789.242	139.20046
789.477	139.17018
789.712	139.27594
789.947	139.14739
790.182	139.47984
790.417	139.79189
790.652	139.53197
790.887	139.81423
791.122	139.4761
791.357	139.55002
791.591	139.49918
791.826	140.01865
792.061	139.77771
792.295	139.84058
792.53	139.81594
792.764	140.18835
792.999	139.92038
793.233	140.13892
793.467	140.13601
793.701	140.38116
793.936	140.26499
794.17	140.25353
794.404	140.21794
794.638	140.74543
794.872	140.89209
795.106	140.41115
795.34	140.84035
795.573	140.42331
795.807	140.88035
796.041	140.61607
796.274	140.55091
796.508	141.26706
796.741	141.54098
796.975	141.11137
797.208	141.53832
797.442	141.56524
797.675	141.52777
797.908	141.8616
798.141	141.40246
798.375	141.41416
798.608	141.71453
798.841	141.86012
799.074	142.18827
799.306	141.77188
799.539	141.89661
799.772	141.69248
800.005	141.70484
800.238	141.87977
800.47	141.61492
800.703	141.90877
800.935	141.83775
801.168	141.74049
801.4	141.92191
801.633	141.7772
801.865	141.93914
802.097	142.44405
802.329	141.76908
802.562	141.99767
802.794	142.1294
803.026	141.39356
803.258	142.51632
803.49	142.20133
803.721	141.79111
803.953	142.14245
804.185	142.13571
804.417	142.10225
804.648	142.74315
804.88	142.52284
805.112	142.05901
805.343	142.594
805.575	142.28034
805.806	142.31115
806.037	142.77987
806.269	143.04872
806.5	142.69759
806.731	142.66857
806.962	142.8999
807.193	142.87933
807.424	142.97364
807.655	143.30803
807.886	133.57088
808.117	214.04587
808.348	388.8838
808.578	228.94454
