Data from Reflection__12__10-08-37-539.txt Node

Date: Wed Jul 02 10:08:37 BST 2025
User: Jamie
Spectrometer: HDX00312
Trigger mode: 0
Integration Time (sec): 1.070000E-1
Scans to average: 10
Nonlinearity correction enabled: true
Boxcar width: 0
Storing dark spectrum: false
XAxis mode: Wavelengths
Number of Pixels in Spectrum: 2068
>>>>>Begin Spectral Data<<<<<
196.211	110.16941
196.582	1449.99506
196.954	189.99957
197.325	176.31515
197.696	140.43213
198.067	126.87045
198.438	109.36755
198.809	84.50421
199.18	77.61048
199.551	81.62616
199.922	80.04358
200.293	76.07599
200.663	76.81896
201.034	76.57366
201.404	80.2174
201.774	79.97444
202.144	79.19855
202.515	76.6135
202.885	82.20486
203.255	78.27789
203.625	75.10711
203.994	75.44547
204.364	79.47732
204.734	79.20006
205.103	77.22203
205.473	79.28972
205.842	76.20179
206.212	77.86084
206.581	78.30339
206.95	79.29364
207.319	75.78464
207.688	74.66684
208.057	74.92558
208.426	76.65295
208.795	74.47778
209.163	77.29144
209.532	75.75024
209.9	78.06769
210.269	74.89258
210.637	69.99442
211.005	68.0093
211.374	70.87517
211.742	73.69153
212.11	70.05282
212.478	71.28142
212.846	73.60449
213.213	71.22088
213.581	69.89642
213.949	67.14302
214.316	67.12374
214.684	64.73762
215.051	68.40086
215.418	65.61736
215.786	64.16044
216.153	62.79799
216.52	61.18421
216.887	59.52585
217.254	58.11555
217.62	56.71278
217.987	55.27696
218.354	53.28881
218.72	52.5897
219.087	50.93117
219.453	48.87167
219.819	46.04539
220.186	43.04616
220.552	41.59818
220.918	40.23235
221.284	37.39663
221.65	34.98397
222.016	34.25768
222.381	33.10435
222.747	32.78953
223.113	29.27922
223.478	29.61463
223.844	28.63856
224.209	27.3736
224.574	26.29023
224.939	25.81113
225.304	25.05178
225.669	24.25429
226.034	23.93612
226.399	23.55388
226.764	23.01673
227.129	22.56704
227.493	22.54287
227.858	22.20766
228.222	21.96856
228.587	22.23323
228.951	21.90715
229.315	21.54794
229.679	21.574
230.043	21.44862
230.407	21.3216
230.771	21.11728
231.135	21.02714
231.499	21.12771
231.862	20.9951
232.226	20.73325
232.589	20.99983
232.953	21.06561
233.316	20.71767
233.679	21.01504
234.042	20.98866
234.405	21.00149
234.768	20.9371
235.131	20.93516
235.494	20.99165
235.857	21.09432
236.22	21.06724
236.582	21.00283
236.945	20.96202
237.307	21.08804
237.669	21.13827
238.032	21.13289
238.394	21.02874
238.756	21.24313
239.118	21.1461
239.48	21.34882
239.842	21.20809
240.204	21.21371
240.565	21.3883
240.927	21.43282
241.288	21.5135
241.65	21.49007
242.011	21.59424
242.373	21.61694
242.734	21.62401
243.095	21.73071
243.456	21.73829
243.817	21.82476
244.178	21.9
244.539	21.80872
244.899	21.83631
245.26	21.98439
245.621	21.96312
245.981	22.05648
246.341	22.02166
246.702	22.06123
247.062	22.08319
247.422	21.96266
247.782	21.99075
248.142	21.92442
248.502	22.12002
248.862	22.09952
249.222	22.13807
249.582	22.05837
249.941	22.04565
250.301	22.04267
250.66	22.03706
251.02	21.99637
251.379	22.0797
251.738	22.07605
252.097	22.08504
252.456	22.04064
252.815	22.03828
253.174	21.98317
253.533	22.02286
253.892	22.06875
254.25	22.0617
254.609	22.08848
254.967	22.0191
255.326	22.11973
255.684	22.13566
256.042	22.05529
256.4	22.03729
256.759	22.05484
257.117	22.12493
257.474	22.06824
257.832	22.07444
258.19	22.11555
258.548	22.1035
258.905	22.23564
259.263	22.09883
259.62	22.21337
259.978	22.10367
260.335	22.27281
260.692	22.24967
261.049	22.30349
261.406	22.29546
261.763	22.44319
262.12	22.39106
262.477	22.44572
262.834	22.48727
263.19	22.40229
263.547	22.42815
263.904	22.46763
264.26	22.57321
264.616	22.53376
264.973	22.59193
265.329	22.56589
265.685	22.68079
266.041	22.7223
266.397	22.758
266.753	22.86449
267.108	22.82994
267.464	22.82388
267.82	22.95092
268.175	22.94162
268.531	23.08075
268.886	23.00022
269.241	23.1141
269.597	23.17124
269.952	23.08792
270.307	23.08478
270.662	23.22566
271.017	23.22471
271.371	23.18497
271.726	23.27119
272.081	23.28865
272.435	23.35318
272.79	23.3108
273.144	23.31175
273.499	23.42682
273.853	23.51746
274.207	23.57104
274.561	23.53113
274.915	23.65449
275.269	23.54321
275.623	23.67401
275.977	23.55729
276.331	23.68302
276.684	23.73554
277.038	23.706
277.391	23.65284
277.745	23.65422
278.098	23.76046
278.451	23.82369
278.804	23.78059
279.157	23.80983
279.51	23.77408
279.863	23.86726
280.216	23.89987
280.569	23.79237
280.922	23.87603
281.274	23.91792
281.627	24.01059
281.979	24.07628
282.332	23.92378
282.684	23.98865
283.036	23.99792
283.388	24.05317
283.74	24.05494
284.092	24.10828
284.444	24.13041
284.796	24.11958
285.148	24.11852
285.499	24.12742
285.851	24.17642
286.202	24.22031
286.554	24.19443
286.905	24.30733
287.257	24.27096
287.608	24.28606
287.959	24.27148
288.31	24.38838
288.661	24.41861
289.012	24.4434
289.362	24.50508
289.713	24.54511
290.064	24.5984
290.414	24.63058
290.765	24.62971
291.115	24.60429
291.466	24.73185
291.816	24.70695
292.166	24.81891
292.516	24.80712
292.866	24.86506
293.216	24.97839
293.566	24.86643
293.916	24.90932
294.265	24.98129
294.615	24.95497
294.964	25.01455
295.314	25.13644
295.663	25.10368
296.013	25.17612
296.362	25.20437
296.711	25.16711
297.06	25.14009
297.409	25.20329
297.758	25.34278
298.107	25.35376
298.455	25.31714
298.804	25.27601
299.153	25.31386
299.501	25.31805
299.85	25.42716
300.198	25.4498
300.546	25.48906
300.894	25.5357
301.243	25.50304
301.591	25.53068
301.939	25.34068
302.287	25.53876
302.634	25.51601
302.982	25.55605
303.33	25.67407
303.677	25.61511
304.025	25.63227
304.372	25.71267
304.72	25.6441
305.067	25.74735
305.414	25.77688
305.761	25.77281
306.108	25.79793
306.455	25.78869
306.802	25.7761
307.149	25.80791
307.495	25.73998
307.842	25.82675
308.189	25.90529
308.535	25.84866
308.882	25.96131
309.228	26.00793
309.574	25.84845
309.92	25.95951
310.266	26.01336
310.612	26.03508
310.958	26.04447
311.304	26.0289
311.65	25.96702
311.996	26.02162
312.341	26.16843
312.687	26.09329
313.032	26.16788
313.378	26.22817
313.723	26.29192
314.068	26.24545
314.413	26.34688
314.759	26.34366
315.104	26.41575
315.449	26.45304
315.793	26.4292
316.138	26.50044
316.483	26.52826
316.827	26.57088
317.172	26.61558
317.516	26.67685
317.861	26.80152
318.205	26.82094
318.549	26.83952
318.894	26.9465
319.238	26.88745
319.582	26.94404
319.926	26.95448
320.269	27.09303
320.613	27.12536
320.957	27.09981
321.3	27.23948
321.644	27.09286
321.987	27.32391
322.331	27.33454
322.674	27.23474
323.017	27.47341
323.36	27.33694
323.704	27.64804
324.047	27.52141
324.389	27.61183
324.732	27.64837
325.075	27.6649
325.418	27.82919
325.76	27.78283
326.103	27.91613
326.445	27.95569
326.788	27.94132
327.13	28.03325
327.472	28.0606
327.814	28.22847
328.156	28.29267
328.498	28.43511
328.84	28.35951
329.182	28.40393
329.524	28.65393
329.866	28.61351
330.207	28.64173
330.549	28.63067
330.89	28.73856
331.231	28.88972
331.573	28.95151
331.914	28.91906
332.255	29.00921
332.596	29.09431
332.937	29.10698
333.278	29.19369
333.619	29.29416
333.96	29.33836
334.3	29.50846
334.641	29.54084
334.981	29.53789
335.322	29.60791
335.662	29.80223
336.003	29.87632
336.343	29.69714
336.683	29.89371
337.023	30.00148
337.363	30.01086
337.703	30.09018
338.043	30.08809
338.382	30.25787
338.722	30.22833
339.062	30.45334
339.401	30.38969
339.741	30.54808
340.08	30.52146
340.419	30.65486
340.759	30.62367
341.098	30.78268
341.437	30.74878
341.776	30.83873
342.115	30.98093
342.454	30.96903
342.792	30.98488
343.131	31.22352
343.47	31.2926
343.808	31.12753
344.147	31.34562
344.485	31.26404
344.823	31.53224
345.162	31.32212
345.5	31.52102
345.838	31.51983
346.176	31.58026
346.514	31.62435
346.851	31.61938
347.189	31.68001
347.527	31.75742
347.865	31.75723
348.202	31.91518
348.54	31.89537
348.877	31.98237
349.214	32.07783
349.551	32.13033
349.889	32.13174
350.226	32.23941
350.563	32.19111
350.9	32.25521
351.236	32.34177
351.573	32.29517
351.91	32.27488
352.247	32.42688
352.583	32.35566
352.92	32.50811
353.256	32.46672
353.592	32.57125
353.929	32.56435
354.265	32.5456
354.601	32.80769
354.937	32.88496
355.273	32.86657
355.609	32.76374
355.944	32.91264
356.28	32.96259
356.616	32.94479
356.951	33.17178
357.287	33.08871
357.622	33.19119
357.957	33.3633
358.293	33.33237
358.628	33.23405
358.963	33.42273
359.298	33.41476
359.633	33.43128
359.968	33.43491
360.303	33.56961
360.637	33.61983
360.972	33.62175
361.307	33.74522
361.641	33.67063
361.975	33.73465
362.31	33.78266
362.644	33.84592
362.978	33.93599
363.312	33.84679
363.646	33.99308
363.98	34.00736
364.314	34.01614
364.648	34.24384
364.982	34.19386
365.315	34.31606
365.649	34.18813
365.983	34.23879
366.316	34.4428
366.649	34.39457
366.983	34.34059
367.316	34.71178
367.649	34.63
367.982	34.42824
368.315	34.5421
368.648	34.78126
368.981	34.63539
369.313	34.74236
369.646	34.9384
369.979	34.77116
370.311	34.80659
370.644	35.0193
370.976	34.90257
371.308	35.13709
371.641	35.11168
371.973	34.96055
372.305	35.11017
372.637	35.13
372.969	35.35006
373.301	35.40518
373.632	35.23212
373.964	35.42402
374.296	35.3861
374.627	35.23675
374.959	35.57821
375.29	35.52853
375.621	35.4679
375.953	35.69373
376.284	35.72365
376.615	35.52072
376.946	35.67461
377.277	35.80376
377.608	35.86065
377.939	35.76124
378.269	35.69836
378.6	35.91684
378.931	35.71055
379.261	35.90583
379.591	35.89624
379.922	35.79346
380.252	35.77934
380.582	35.9658
380.912	35.85642
381.242	35.8556
381.572	35.94057
381.902	35.98842
382.232	36.04893
382.562	36.05386
382.891	36.05747
383.221	36.11974
383.551	36.03191
383.88	36.18967
384.209	36.18235
384.539	36.29409
384.868	36.44072
385.197	36.32731
385.526	36.32356
385.855	36.32977
386.184	36.44058
386.513	36.40607
386.842	36.46011
387.17	36.47862
387.499	36.44031
387.828	36.56526
388.156	36.57481
388.484	36.50815
388.813	36.35799
389.141	36.33127
389.469	36.50321
389.797	36.54161
390.125	36.60826
390.453	36.52242
390.781	36.70438
391.109	36.74929
391.437	36.63758
391.764	36.66701
392.092	36.56999
392.419	36.74961
392.747	36.82598
393.074	36.77825
393.401	36.8598
393.729	36.99686
394.056	36.77056
394.383	36.93092
394.71	36.96597
395.037	37.04712
395.363	36.98895
395.69	36.91363
396.017	37.01713
396.344	37.18974
396.67	36.96333
396.997	37.05539
397.323	36.96375
397.649	37.08891
397.975	37.10036
398.302	37.0383
398.628	37.02622
398.954	37.0233
399.28	37.01587
399.606	37.12901
399.931	37.07769
400.257	37.22532
400.583	37.36114
400.908	37.26691
401.234	37.29137
401.559	37.32024
401.884	37.57281
402.21	37.52723
402.535	37.58253
402.86	37.40257
403.185	37.71565
403.51	37.50082
403.835	37.42004
404.16	37.60547
404.485	37.56157
404.809	37.56152
405.134	37.51981
405.458	37.77829
405.783	37.78913
406.107	37.76466
406.432	37.84923
406.756	37.7434
407.08	37.72019
407.404	37.80833
407.728	37.97091
408.052	37.94361
408.376	38.06642
408.7	38.08917
409.023	37.81969
409.347	38.0112
409.671	38.11536
409.994	37.98798
410.317	37.92392
410.641	38.14205
410.964	38.30657
411.287	38.45677
411.61	38.15505
411.933	38.31485
412.256	38.42403
412.579	38.42226
412.902	38.31507
413.225	38.2207
413.548	38.45695
413.87	38.34645
414.193	38.37919
414.515	38.62003
414.838	38.47
415.16	38.5536
415.482	38.49264
415.804	38.94079
416.126	38.69942
416.448	38.70669
416.77	38.76907
417.092	38.82118
417.414	39.02419
417.736	39.07864
418.057	39.01917
418.379	38.87899
418.701	39.07135
419.022	39.18728
419.343	39.2334
419.665	39.35994
419.986	39.23614
420.307	39.08322
420.628	39.32006
420.949	39.2481
421.27	39.62642
421.591	39.27384
421.912	39.29512
422.232	39.37831
422.553	39.41289
422.873	39.37037
423.194	39.73745
423.514	39.3586
423.835	39.86481
424.155	39.90003
424.475	39.72017
424.795	39.91462
425.115	39.86715
425.435	39.9341
425.755	40.19623
426.075	39.98195
426.395	40.12893
426.714	40.2825
427.034	40.1194
427.354	40.2665
427.673	40.32529
427.992	40.56187
428.312	40.49589
428.631	40.53602
428.95	40.59873
429.269	40.5719
429.588	40.75175
429.907	40.3944
430.226	40.52332
430.545	40.76895
430.864	40.97396
431.182	40.89916
431.501	40.82608
431.819	41.13265
432.138	40.96219
432.456	40.83574
432.774	41.05631
433.093	41.30013
433.411	41.09638
433.729	41.58458
434.047	41.93193
434.365	41.89052
434.683	42.05909
435	42.30959
435.318	42.11346
435.636	42.01333
435.953	41.50823
436.271	41.48612
436.588	41.52603
436.906	41.46362
437.223	41.49567
437.54	41.66691
437.857	41.89093
438.174	41.82113
438.491	42.10453
438.808	42.29469
439.125	42.10975
439.442	42.15562
439.758	41.90942
440.075	42.0652
440.392	42.06114
440.708	42.38987
441.024	42.51689
441.341	42.31689
441.657	42.40042
441.973	42.0976
442.289	42.08964
442.605	42.2544
442.921	42.4156
443.237	42.5641
443.553	42.74704
443.869	42.40029
444.184	42.42921
444.5	42.58724
444.816	42.19873
445.131	42.44945
445.446	42.4626
445.762	42.49039
446.077	42.80522
446.392	42.54269
446.707	42.54363
447.022	42.51262
447.337	42.87288
447.652	42.57572
447.967	42.6502
448.282	42.66506
448.596	42.53907
448.911	42.87399
449.225	42.49378
449.54	42.6071
449.854	42.65913
450.169	42.95948
450.483	42.89649
450.797	43.05641
451.111	42.73236
451.425	42.77006
451.739	42.92593
452.053	43.10902
452.367	42.62884
452.68	42.89938
452.994	42.6865
453.308	42.66873
453.621	42.78533
453.935	42.84569
454.248	43.00899
454.561	43.04719
454.874	42.77961
455.188	43.00106
455.501	42.82492
455.814	43.12082
456.127	42.86912
456.44	42.70957
456.752	42.85293
457.065	42.889
457.378	42.79335
457.69	42.74838
458.003	42.9157
458.315	42.74819
458.628	42.97951
458.94	42.76151
459.252	42.93293
459.564	42.87006
459.876	42.6202
460.188	42.5988
460.5	42.94141
460.812	42.72497
461.124	42.8586
461.436	42.95176
461.747	42.63203
462.059	42.90327
462.37	42.85442
462.682	42.34248
462.993	42.75603
463.304	42.43676
463.616	42.83617
463.927	42.52605
464.238	42.5881
464.549	42.54159
464.86	42.89468
465.171	42.59965
465.481	42.63159
465.792	43.00269
466.103	42.62854
466.413	42.58117
466.724	42.5205
467.034	42.24925
467.345	42.35036
467.655	42.57416
467.965	42.58557
468.275	42.40758
468.585	42.48641
468.895	42.60927
469.205	42.66317
469.515	42.36249
469.825	42.12682
470.135	42.77094
470.444	42.53945
470.754	42.48259
471.063	42.57839
471.373	42.4339
471.682	42.62068
471.991	42.94818
472.301	42.61297
472.61	42.773
472.919	42.55096
473.228	42.61369
473.537	42.80111
473.846	42.68458
474.155	42.62537
474.463	42.48952
474.772	42.60637
475.08	42.71135
475.389	42.80676
475.697	42.70886
476.006	42.79898
476.314	42.78458
476.622	42.59921
476.93	42.61685
477.239	42.94321
477.547	42.63423
477.855	42.81673
478.162	42.53162
478.47	42.6732
478.778	42.62914
479.086	42.73547
479.393	42.65546
479.701	42.86915
480.008	42.66089
480.315	42.68481
480.623	42.63734
480.93	42.7082
481.237	42.71049
481.544	42.83444
481.851	42.68588
482.158	42.69206
482.465	42.88892
482.772	42.88427
483.079	42.65683
483.385	42.65671
483.692	42.89691
483.998	42.70912
484.305	42.64355
484.611	42.63325
484.918	42.60946
485.224	42.97373
485.53	42.91014
485.836	42.86462
486.142	43.03204
486.448	43.07269
486.754	42.86116
487.06	42.94486
487.366	42.87207
487.671	42.83416
487.977	42.96015
488.282	43.26812
488.588	42.92119
488.893	43.06611
489.199	42.77915
489.504	43.20761
489.809	42.90482
490.114	43.23572
490.419	43.14691
490.724	43.29374
491.029	43.27227
491.334	43.31842
491.639	43.25856
491.943	43.31227
492.248	43.41152
492.553	43.18716
492.857	43.36914
493.162	43.16387
493.466	43.40677
493.77	43.58473
494.074	43.68174
494.378	43.56859
494.683	43.66968
494.987	43.32902
495.29	43.77528
495.594	43.70057
495.898	43.79739
496.202	43.69045
496.505	44.00955
496.809	43.86046
497.113	44.1967
497.416	44.06287
497.719	44.11009
498.023	43.99112
498.326	44.44262
498.629	44.03651
498.932	44.1334
499.235	44.31347
499.538	44.28105
499.841	44.43122
500.144	44.40315
500.446	44.56329
500.749	44.34476
501.052	44.52538
501.354	44.5675
501.657	44.70067
501.959	44.73112
502.261	44.82507
502.564	44.67415
502.866	44.6895
503.168	44.82354
503.47	45.10374
503.772	44.99441
504.074	45.00811
504.376	45.10791
504.677	45.20107
504.979	45.18193
505.281	45.36316
505.582	45.54033
505.884	45.37096
506.185	45.49754
506.486	45.72345
506.788	45.4903
507.089	45.84063
507.39	45.89239
507.691	45.94757
507.992	46.03097
508.293	46.03187
508.594	46.00812
508.895	45.88677
509.195	46.33413
509.496	46.21708
509.797	46.44008
510.097	46.57367
510.398	46.51484
510.698	46.54062
510.998	46.82328
511.298	46.70804
511.599	46.89239
511.899	46.86314
512.199	47.10258
512.499	47.09696
512.799	47.30973
513.098	47.34416
513.398	47.33743
513.698	47.33121
513.997	47.81825
514.297	47.81218
514.596	47.8549
514.896	48.04758
515.195	48.33524
515.494	48.46552
515.794	48.39884
516.093	48.49871
516.392	48.48316
516.691	48.75541
516.99	48.85351
517.288	48.91338
517.587	48.83408
517.886	49.06947
518.185	49.24558
518.483	49.21805
518.782	49.53623
519.08	49.65627
519.378	49.77447
519.677	49.86332
519.975	49.93934
520.273	50.1534
520.571	50.26645
520.869	50.3606
521.167	50.58554
521.465	50.76663
521.763	50.68928
522.061	50.60855
522.358	50.92485
522.656	50.88172
522.953	51.03807
523.251	51.09203
523.548	51.34276
523.846	51.57871
524.143	51.4825
524.44	51.54361
524.737	51.73181
525.034	52.04387
525.331	51.96587
525.628	51.93205
525.925	52.02689
526.222	52.11336
526.518	52.02819
526.815	52.34223
527.112	52.29436
527.408	52.52689
527.705	52.49098
528.001	52.55552
528.297	52.47866
528.593	52.73455
528.89	52.77108
529.186	52.68673
529.482	52.6601
529.778	52.65848
530.074	52.44357
530.369	52.60732
530.665	52.69586
530.961	52.68852
531.256	52.62
531.552	52.67885
531.847	52.37471
532.143	52.59453
532.438	52.59828
532.733	52.63263
533.029	52.43052
533.324	52.70512
533.619	52.49907
533.914	52.62847
534.209	52.42172
534.504	52.27263
534.798	52.27344
535.093	52.46191
535.388	52.41546
535.682	52.11678
535.977	51.95859
536.271	51.93205
536.566	52.01193
536.86	52.06581
537.154	52.00157
537.448	51.80233
537.742	51.92681
538.037	51.80688
538.33	51.70744
538.624	52.02614
538.918	51.83199
539.212	51.88939
539.506	51.97086
539.799	51.96122
540.093	52.00594
540.386	51.89284
540.68	51.88228
540.973	52.03025
541.266	52.00678
541.56	51.6077
541.853	51.83329
542.146	51.95917
542.439	52.31229
542.732	52.11481
543.025	52.12196
543.318	52.03693
543.61	52.24173
543.903	52.25999
544.196	52.30089
544.488	52.18064
544.781	52.37113
545.073	52.41761
545.365	52.58473
545.658	52.54228
545.95	52.79748
546.242	52.71812
546.534	52.72432
546.826	52.85229
547.118	52.93373
547.41	53.0119
547.702	53.00745
547.993	53.12732
548.285	53.1875
548.577	53.37595
548.868	53.47928
549.16	53.4894
549.451	53.32408
549.742	53.61679
550.034	53.64873
550.325	53.84809
550.616	53.65971
550.907	53.84338
551.198	53.89178
551.489	54.02557
551.78	53.84048
552.07	54.30392
552.361	54.18529
552.652	54.28288
552.942	54.38154
553.233	54.49499
553.523	54.55088
553.814	54.5594
554.104	54.68152
554.394	54.65754
554.684	54.9379
554.975	54.55484
555.265	54.70166
555.555	54.90044
555.845	54.80238
556.134	54.83794
556.424	54.79837
556.714	54.70396
557.003	55.18902
557.293	55.01004
557.583	54.94683
557.872	54.95185
558.161	55.16556
558.451	55.15511
558.74	55.0282
559.029	55.24599
559.318	55.22494
559.607	55.19974
559.896	55.18411
560.185	55.19215
560.474	55.02295
560.763	55.23536
561.051	55.09459
561.34	55.3377
561.629	55.35982
561.917	55.12371
562.205	55.23944
562.494	55.28929
562.782	55.30275
563.07	55.12699
563.359	55.15555
563.647	55.22172
563.935	55.28776
564.223	55.16253
564.51	55.11582
564.798	55.23152
565.086	55.06722
565.374	55.12671
565.661	54.91323
565.949	55.14493
566.236	55.0546
566.524	55.10239
566.811	55.18771
567.099	55.17855
567.386	54.92773
567.673	55.05013
567.96	55.04173
568.247	55.05356
568.534	54.98126
568.821	55.00742
569.108	55.05461
569.394	54.82503
569.681	54.74391
569.968	54.96311
570.254	54.81435
570.541	55.09662
570.827	55.01197
571.114	55.05117
571.4	54.91905
571.686	54.94564
571.972	55.09413
572.258	54.96164
572.544	54.95379
572.83	54.79654
573.116	55.03646
573.402	54.92655
573.688	54.99049
573.973	54.91645
574.259	54.8696
574.545	54.86773
574.83	54.94166
575.116	54.94576
575.401	54.65658
575.686	54.85181
575.971	54.8824
576.257	54.80871
576.542	54.87067
576.827	54.83317
577.112	54.74705
577.397	54.83037
577.681	54.85879
577.966	54.99047
578.251	55.04126
578.536	54.86821
578.82	54.77768
579.105	54.90136
579.389	54.83261
579.673	54.86983
579.958	54.8273
580.242	54.68112
580.526	54.67764
580.81	54.78879
581.094	54.58143
581.378	54.66392
581.662	54.7264
581.946	54.50172
582.23	54.49344
582.513	54.48964
582.797	54.49308
583.081	54.39812
583.364	54.36553
583.648	54.72004
583.931	54.60791
584.214	54.59481
584.498	54.52576
584.781	54.43932
585.064	54.45677
585.347	54.37035
585.63	54.38762
585.913	54.14548
586.196	54.36107
586.478	54.24915
586.761	54.02623
587.044	54.17064
587.326	54.18024
587.609	54.10384
587.891	54.05669
588.174	54.03727
588.456	53.97354
588.738	54.20983
589.02	54.06135
589.303	53.86282
589.585	53.8039
589.867	53.84952
590.149	53.66193
590.43	53.79299
590.712	53.6336
590.994	53.48677
591.276	53.38728
591.557	53.46074
591.839	53.33307
592.12	53.17548
592.402	53.2689
592.683	53.05753
592.964	53.27756
593.245	53.03176
593.527	53.04859
593.808	53.04193
594.089	52.92305
594.37	52.83712
594.65	52.84356
594.931	52.83567
595.212	52.5688
595.493	52.72099
595.773	52.62292
596.054	52.46746
596.334	52.56291
596.615	52.4725
596.895	52.53648
597.175	52.46982
597.456	52.26603
597.736	52.25311
598.016	52.32253
598.296	52.20899
598.576	52.20925
598.856	52.03877
599.136	51.8145
599.415	51.83167
599.695	51.7299
599.975	51.78999
600.254	51.67152
600.534	51.58062
600.813	51.51311
601.093	51.38705
601.372	51.4109
601.651	51.22499
601.93	51.05072
602.209	51.10857
602.488	51.09965
602.767	50.87921
603.046	51.00619
603.325	50.73393
603.604	50.83757
603.883	50.83806
604.161	50.6772
604.44	50.54861
604.718	50.41302
604.997	50.35263
605.275	50.27067
605.554	50.27586
605.832	50.13475
606.11	50.07247
606.388	50.03822
606.666	49.89019
606.944	49.94851
607.222	49.57156
607.5	49.79974
607.778	49.8103
608.056	49.51132
608.333	49.57511
608.611	49.42044
608.889	49.37543
609.166	49.17438
609.444	49.28951
609.721	49.22033
609.998	49.21469
610.275	49.2356
610.553	48.82217
610.83	48.86005
611.107	48.87102
611.384	49.07853
611.661	48.91174
611.937	48.71302
612.214	48.63537
612.491	48.61954
612.768	48.68477
613.044	48.65122
613.321	48.47594
613.597	48.59795
613.874	48.38105
614.15	48.44754
614.426	48.51468
614.702	48.49226
614.978	48.39403
615.255	48.40305
615.531	48.18903
615.806	48.30627
616.082	48.14768
616.358	48.22274
616.634	48.24823
616.91	48.10312
617.185	48.12657
617.461	48.14645
617.736	48.09797
618.012	48.19109
618.287	48.10937
618.562	47.91919
618.838	47.91301
619.113	48.00351
619.388	48.00582
619.663	47.98408
619.938	48.06199
620.213	47.83797
620.488	48.00202
620.762	48.1794
621.037	47.95144
621.312	48.05474
621.586	48.07385
621.861	47.96849
622.135	47.96729
622.41	48.0005
622.684	48.141
622.958	48.01643
623.233	48.09681
623.507	48.12185
623.781	47.99899
624.055	48.25368
624.329	48.08535
624.603	48.08227
624.876	48.06808
625.15	48.10573
625.424	48.06197
625.698	48.19076
625.971	48.13533
626.245	48.07885
626.518	48.30247
626.791	48.21124
627.065	48.30724
627.338	48.1193
627.611	48.24933
627.884	48.03289
628.157	48.30721
628.43	48.2204
628.703	48.26928
628.976	48.39961
629.249	48.26907
629.522	48.36707
629.794	48.34452
630.067	48.31769
630.339	48.13371
630.612	48.28928
630.884	48.35501
631.157	48.21909
631.429	48.09702
631.701	48.27669
631.973	48.13541
632.245	48.11155
632.518	48.06513
632.789	48.10799
633.061	47.88715
633.333	48.01971
633.605	47.8952
633.877	47.77308
634.148	47.90806
634.42	47.65797
634.691	47.58979
634.963	47.54404
635.234	47.52115
635.506	47.56075
635.777	47.3453
636.048	47.39177
636.319	47.17238
636.59	47.17598
636.861	46.96256
637.132	47.13323
637.403	46.99276
637.674	46.79031
637.945	46.79113
638.216	46.57409
638.486	46.4682
638.757	46.35707
639.027	46.17432
639.298	46.17895
639.568	46.00053
639.838	45.82424
640.109	45.82378
640.379	45.71515
640.649	45.63608
640.919	45.32568
641.189	45.18051
641.459	45.13796
641.729	44.82798
641.999	44.82459
642.269	44.73073
642.538	44.80885
642.808	44.58063
643.077	44.46979
643.347	44.50075
643.616	44.28452
643.886	44.15038
644.155	44.08159
644.424	43.95839
644.693	43.83479
644.963	43.84358
645.232	43.86427
645.501	43.68034
645.77	43.60979
646.038	43.52333
646.307	43.35907
646.576	43.24172
646.845	43.14191
647.113	43.27077
647.382	43.15703
647.65	43.03632
647.919	42.93825
648.187	42.88604
648.455	42.81402
648.724	42.80125
648.992	42.72923
649.26	42.77119
649.528	42.57608
649.796	42.59194
650.064	42.5194
650.332	42.38343
650.6	42.34343
650.867	42.37679
651.135	42.45133
651.403	42.19973
651.67	42.29254
651.938	42.31547
652.205	42.14984
652.473	42.26505
652.74	42.1198
653.007	42.08967
653.274	42.00034
653.541	42.04434
653.808	41.96076
654.075	41.88161
654.342	41.87179
654.609	41.86985
654.876	41.70133
655.143	41.70281
655.409	41.62994
655.676	41.62723
655.943	41.4704
656.209	41.61706
656.475	41.51795
656.742	41.42512
657.008	41.3944
657.274	41.27806
657.541	41.29216
657.807	41.26897
658.073	41.15462
658.339	41.04207
658.605	40.80123
658.871	40.81871
659.136	40.70609
659.402	40.74634
659.668	40.47007
659.933	40.44871
660.199	40.34886
660.464	40.2643
660.73	40.18726
660.995	40.11232
661.261	40.01167
661.526	39.98418
661.791	39.84633
662.056	39.63565
662.321	39.57408
662.586	39.55145
662.851	39.43284
663.116	39.23702
663.381	39.36537
663.646	39.16595
663.91	39.28111
664.175	39.20239
664.439	39.04477
664.704	38.94046
664.968	38.7559
665.233	38.85549
665.497	38.74591
665.761	38.76048
666.025	38.53389
666.29	38.44298
666.554	38.3716
666.818	38.32921
667.082	38.22402
667.345	38.11213
667.609	38.11609
667.873	38.00236
668.137	37.97296
668.4	38.14985
668.664	37.90332
668.927	37.84708
669.191	37.79023
669.454	37.85636
669.718	37.68334
669.981	37.74894
670.244	37.66185
670.507	37.59524
670.77	37.55796
671.033	37.61392
671.296	37.56438
671.559	37.59327
671.822	37.61278
672.085	37.48371
672.348	37.55693
672.61	37.43517
672.873	37.45755
673.135	37.47679
673.398	37.46348
673.66	37.48431
673.922	37.50831
674.185	37.51285
674.447	37.52968
674.709	37.42562
674.971	37.67497
675.233	37.63792
675.495	37.68622
675.757	37.64229
676.019	37.66092
676.281	37.78114
676.542	37.82364
676.804	37.77898
677.066	37.81647
677.327	37.83613
677.589	37.91121
677.85	37.89014
678.112	38.03135
678.373	38.06986
678.634	38.14309
678.895	38.19625
679.156	38.31458
679.417	38.36196
679.678	38.46415
679.939	38.54532
680.2	38.57719
680.461	38.69807
680.722	38.85774
680.982	38.96586
681.243	39.07739
681.504	39.25494
681.764	39.23148
682.025	39.35187
682.285	39.58216
682.545	39.58404
682.806	39.7803
683.066	39.8972
683.326	40.1195
683.586	40.19459
683.846	40.29674
684.106	40.46198
684.366	40.73457
684.626	40.98229
684.885	40.93757
685.145	41.37035
685.405	41.5207
685.664	41.69756
685.924	41.98713
686.183	42.24576
686.443	42.42022
686.702	42.63601
686.961	42.93913
687.221	43.08535
687.48	43.2917
687.739	43.52174
687.998	43.88444
688.257	44.10675
688.516	44.28486
688.775	44.62278
689.033	45.02429
689.292	45.21847
689.551	45.59999
689.809	45.79436
690.068	46.00328
690.326	46.4651
690.585	46.80259
690.843	47.07444
691.102	47.43375
691.36	47.64663
691.618	48.05319
691.876	48.33357
692.134	48.66491
692.392	49.10878
692.65	49.38044
692.908	49.73486
693.166	50.25544
693.424	50.56944
693.681	50.94252
693.939	51.33661
694.197	51.6003
694.454	51.91942
694.712	52.43891
694.969	52.6909
695.226	53.12229
695.484	53.35014
695.741	53.77058
695.998	54.41643
696.255	54.62957
696.512	55.08069
696.769	55.42169
697.026	55.81125
697.283	56.45359
697.54	56.7153
697.796	57.1208
698.053	57.50437
698.31	57.94854
698.566	58.28
698.823	58.72523
699.079	59.14804
699.336	59.59862
699.592	60.10054
699.848	60.64131
700.104	61.1375
700.361	61.66876
700.617	61.92614
700.873	62.44061
701.129	63.09092
701.384	63.51884
701.64	63.93214
701.896	64.47744
702.152	64.91095
702.407	65.47112
702.663	65.79492
702.919	66.51143
703.174	66.87845
703.43	67.55222
703.685	67.8512
703.94	68.59124
704.195	69.08117
704.451	69.71392
704.706	70.21894
704.961	70.69343
705.216	71.45793
705.471	71.91236
705.726	72.52064
705.98	72.96499
706.235	73.59868
706.49	73.90074
706.745	74.55641
706.999	75.14824
707.254	75.62878
707.508	76.23326
707.762	76.58967
708.017	77.18833
708.271	77.54395
708.525	78.22266
708.779	78.82075
709.034	79.33791
709.288	79.78763
709.542	80.21417
709.796	80.85502
710.049	81.16135
710.303	81.68443
710.557	82.30344
710.811	82.78779
711.064	83.21386
711.318	83.43472
711.571	83.97336
711.825	84.59208
712.078	84.96991
712.331	85.24244
712.585	85.88463
712.838	86.18981
713.091	86.7659
713.344	87.00974
713.597	87.39807
713.85	87.81615
714.103	88.39588
714.356	88.58719
714.609	89.08087
714.862	89.43841
715.114	89.75419
715.367	90.21713
715.619	90.47873
715.872	90.76919
716.124	91.06756
716.377	91.3778
716.629	91.90186
716.881	92.20616
717.133	92.42242
717.386	92.85329
717.638	93.02133
717.89	93.41326
718.142	93.58046
718.394	93.98175
718.645	94.24131
718.897	94.48595
719.149	94.77362
719.401	95.05726
719.652	95.49686
719.904	95.54479
720.155	95.77261
720.407	96.40972
720.658	96.22245
720.909	96.57618
721.161	96.93362
721.412	97.30297
721.663	97.35608
721.914	97.71313
722.165	97.59817
722.416	98.02393
722.667	98.01852
722.918	98.46577
723.169	98.60554
723.419	98.75987
723.67	99.10667
723.921	98.90254
724.171	99.23837
724.422	99.51685
724.672	99.7159
724.922	99.98885
725.173	100.09123
725.423	100.22541
725.673	100.61045
725.923	100.63643
726.173	100.66842
726.423	100.78382
726.673	100.93629
726.923	101.13817
727.173	101.20144
727.423	101.30175
727.673	101.38901
727.922	102.05734
728.172	101.92663
728.421	101.88525
728.671	102.10265
728.92	102.25371
729.17	102.50175
729.419	102.50734
729.668	102.4286
729.918	102.88932
730.167	102.82015
730.416	103.12235
730.665	103.26831
730.914	103.11737
731.163	103.21731
731.411	103.19596
731.66	103.58496
731.909	103.70728
732.158	103.74295
732.406	103.89927
732.655	104.16659
732.903	104.21555
733.152	104.22981
733.4	104.60114
733.648	104.46823
733.897	104.81897
734.145	104.66642
734.393	104.83763
734.641	104.55574
734.889	104.92827
735.137	105.26989
735.385	105.43703
735.633	105.26095
735.881	105.13699
736.129	105.20794
736.376	105.3599
736.624	105.72483
736.871	105.83458
737.119	105.76775
737.366	105.87887
737.614	105.68727
737.861	106.02958
738.108	106.08096
738.356	106.21439
738.603	106.31926
738.85	106.205
739.097	106.24894
739.344	106.43563
739.591	106.46446
739.838	106.44378
740.084	106.57112
740.331	106.72915
740.578	106.62675
740.825	106.85271
741.071	106.88513
741.318	106.8397
741.564	106.90006
741.811	107.12963
742.057	107.33698
742.303	107.53644
742.549	107.1252
742.796	107.57185
743.042	107.5213
743.288	107.49182
743.534	107.39174
743.78	107.60645
744.026	107.5066
744.271	107.79325
744.517	107.9579
744.763	107.851
745.009	108.02995
745.254	108.16521
745.5	108.08392
745.745	107.82646
745.991	108.03185
746.236	108.20608
746.481	108.19004
746.727	108.29671
746.972	108.12771
747.217	108.29783
747.462	108.36708
747.707	108.34487
747.952	108.33995
748.197	108.38631
748.442	108.55349
748.686	108.56876
748.931	108.59642
749.176	108.75449
749.421	108.89756
749.665	108.66854
749.91	109.08364
750.154	108.83702
750.398	108.98938
750.643	109.00644
750.887	109.38432
751.131	108.96678
751.375	109.15991
751.62	109.23921
751.864	109.62796
752.108	109.27209
752.351	109.49595
752.595	109.70206
752.839	109.75027
753.083	109.90843
753.327	109.90099
753.57	109.84283
753.814	109.67939
754.057	109.60745
754.301	109.93037
754.544	109.81862
754.788	110.05112
755.031	110.16134
755.274	110.08324
755.517	109.93962
755.761	110.3743
756.004	110.06422
756.247	110.15335
756.49	110.27331
756.732	110.37118
756.975	110.20608
757.218	110.43712
757.461	110.35175
757.704	110.25988
757.946	110.24436
758.189	110.64957
758.431	110.50165
758.674	110.43716
758.916	110.21654
759.158	110.65188
759.401	110.56943
759.643	110.7813
759.885	110.4898
760.127	110.83567
760.369	111.03873
760.611	110.68838
760.853	110.76754
761.095	110.93629
761.337	110.98287
761.579	110.81897
761.82	110.86309
762.062	111.01087
762.304	111.01183
762.545	110.87224
762.787	110.95185
763.028	110.85415
763.269	110.73339
763.511	110.89627
763.752	111.20255
763.993	110.95841
764.234	111.09197
764.475	111.23953
764.716	111.16695
764.957	111.06265
765.198	111.17201
765.439	111.34782
765.68	111.03598
765.921	111.55949
766.161	111.28375
766.402	111.36861
766.643	111.48492
766.883	111.49452
767.124	111.38138
767.364	111.53941
767.604	111.30979
767.845	111.35763
768.085	111.68662
768.325	111.91404
768.565	111.65351
768.805	111.69341
769.045	111.65218
769.285	111.81615
769.525	111.49062
769.765	111.86335
770.005	111.72835
770.244	111.82234
770.484	111.93233
770.724	111.88584
770.963	112.1224
771.203	111.90241
771.442	111.84469
771.682	111.85984
771.921	112.08145
772.16	111.91181
772.399	112.18966
772.639	112.12329
772.878	112.33492
773.117	112.22585
773.356	112.28595
773.595	112.51274
773.834	112.16021
774.072	112.39109
774.311	112.42618
774.55	112.2885
774.789	112.36007
775.027	112.22549
775.266	112.33085
775.504	112.64283
775.743	112.43582
775.981	112.36709
776.219	112.69335
776.458	112.87283
776.696	112.48088
776.934	112.84579
777.172	112.69276
777.41	112.75616
777.648	112.84719
777.886	112.91723
778.124	112.81534
778.362	112.77229
778.6	112.90414
778.837	112.91746
779.075	112.9929
779.313	112.63683
779.55	112.92134
779.788	112.89858
780.025	113.09319
780.262	113.1659
780.5	113.24082
780.737	113.12347
780.974	113.12068
781.211	113.07195
781.449	113.37417
781.686	113.53857
781.923	113.47856
782.159	112.88153
782.396	113.3067
782.633	113.1916
782.87	113.27089
783.107	113.33048
783.343	113.55245
783.58	113.24413
783.816	113.30408
784.053	113.29801
784.289	113.40721
784.526	113.47594
784.762	113.43668
784.998	113.52667
785.235	113.53314
785.471	113.23535
785.707	113.40543
785.943	113.52611
786.179	113.29218
786.415	113.5086
786.651	113.7781
786.887	113.64134
787.122	113.6988
787.358	113.63597
787.594	113.63859
787.829	113.37385
788.065	113.81326
788.3	113.66997
788.536	113.96277
788.771	113.52812
789.006	113.31277
789.242	113.69965
789.477	113.90725
789.712	113.7527
789.947	113.59694
790.182	113.88383
790.417	114.1725
790.652	113.65639
790.887	114.30179
791.122	113.9372
791.357	114.05514
791.591	113.90643
791.826	113.70569
792.061	113.88774
792.295	113.91373
792.53	114.02586
792.764	113.9751
792.999	114.15387
793.233	114.30332
793.467	114.20557
793.701	114.03351
793.936	114.32242
794.17	114.4133
794.404	114.6378
794.638	114.47814
794.872	114.56235
795.106	114.64075
795.34	114.56712
795.573	114.42429
795.807	114.62106
796.041	114.8086
796.274	114.65064
796.508	114.77549
796.741	114.72744
796.975	114.60713
797.208	114.63856
797.442	114.30653
797.675	114.84571
797.908	114.55107
798.141	114.75221
798.375	114.64641
798.608	114.83432
798.841	115.08924
799.074	114.6003
799.306	114.73198
799.539	114.76021
799.772	114.75778
800.005	114.8242
800.238	114.77233
800.47	115.05973
800.703	114.9698
800.935	114.64127
801.168	115.38807
801.4	114.91102
801.633	114.90689
801.865	115.08594
802.097	115.02807
802.329	115.16132
802.562	115.07406
802.794	115.30931
803.026	115.36811
803.258	115.19227
803.49	115.02914
803.721	115.09024
803.953	115.22718
804.185	115.27027
804.417	115.33135
804.648	115.29602
804.88	114.96572
805.112	115.34275
805.343	115.36287
805.575	115.31034
805.806	115.47078
806.037	115.24056
806.269	115.36936
806.5	115.4067
806.731	115.25645
806.962	115.54246
807.193	115.65667
807.424	115.35973
807.655	115.24652
807.886	116.13035
808.117	122.85652
808.348	121.05239
808.578	133.82314
